File: notebooks/experimental_tests/results/carbon_tensile_tests/F1.txt
Zeit  1 - Standardmessrate [s]	Kraft [kN]	Weg [mm]	DD1 [Prom]	PMX_1 CH 3-2 [µm/m]	PMX_1 CH 3-3 [mm]	PMX_1 CH 3-4 [mm]
0	-0,1387	0,000	0,000	-1000000	-1000000	-1000000
2,700	-0,1385	-0,00031	0,000	-1000000	-1000000	-1000000
5,400	-0,1385	0,00038	0,000	-1000000	-1000000	-1000000
8,100	-0,1388	-0,00020	0,000	-1000000	-1000000	-1000000
10,80	-0,1385	0,00064	0,000	-1000000	-1000000	-1000000
13,50	-0,1390	0,00036	0,000	-1000000	-1000000	-1000000
16,20	-0,1389	0,00021	0,000	-1000000	-1000000	-1000000
18,90	-0,1386	0,00097	0,00015	-1000000	-1000000	-1000000
21,60	-0,1383	0,000	0,00012	-1000000	-1000000	-1000000
24,30	-0,1389	0,00052	0,00018	-1000000	-1000000	-1000000
27,00	-0,1387	0,00024	0,00016	-1000000	-1000000	-1000000
29,70	-0,1418	0,00635	-0,00529	-1000000	-1000000	-1000000
32,40	-0,2087	0,05201	-0,09532	-1000000	-1000000	-1000000
35,10	-0,2614	0,09696	-0,1489	-1000000	-1000000	-1000000
37,80	-0,2810	0,1418	-0,1631	-1000000	-1000000	-1000000
40,50	-0,2852	0,1869	-0,1647	-1000000	-1000000	-1000000
43,20	-0,2945	0,2322	-0,1767	-1000000	-1000000	-1000000
45,90	-0,3165	0,2766	-0,1985	-1000000	-1000000	-1000000
48,60	-0,3258	0,3223	-0,2062	-1000000	-1000000	-1000000
51,30	-0,3298	0,3672	-0,2124	-1000000	-1000000	-1000000
54,00	-0,3486	0,4115	-0,2343	-1000000	-1000000	-1000000
56,70	-0,3937	0,4566	-0,2844	-1000000	-1000000	-1000000
59,40	-0,4448	0,5018	-0,3390	-1000000	-1000000	-1000000
62,10	-0,5117	0,5464	-0,4138	-1000000	-1000000	-1000000
64,80	-0,5871	0,5917	-0,4993	-1000000	-1000000	-1000000
67,50	-0,6548	0,6365	-0,5755	-1000000	-1000000	-1000000
70,20	-0,7199	0,6818	-0,6517	-1000000	-1000000	-1000000
72,90	-0,7963	0,7266	-0,7396	-1000000	-1000000	-1000000
75,60	-0,8572	0,7714	-0,8085	-1000000	-1000000	-1000000
78,30	-0,9378	0,8158	-0,9014	-1000000	-1000000	-1000000
81,00	-1,021	0,8606	-1,000	-1000000	-1000000	-1000000
83,70	-1,112	0,9057	-1,108	-1000000	-1000000	-1000000
86,40	-1,209	0,9503	-1,224	-1000000	-1000000	-1000000
89,10	-1,307	0,9951	-1,342	-1000000	-1000000	-1000000
91,80	-1,391	1,040	-1,443	-1000000	-1000000	-1000000
94,50	-1,494	1,085	-1,566	-1000000	-1000000	-1000000
97,20	-1,598	1,130	-1,690	-1000000	-1000000	-1000000
99,90	-1,682	1,176	-1,790	-1000000	-1000000	-1000000
102,60	-1,790	1,220	-1,919	-1000000	-1000000	-1000000
105,30	-1,901	1,265	-2,050	-1000000	-1000000	-1000000
108,00	-2,010	1,310	-2,181	-1000000	-1000000	-1000000
110,70	-2,097	1,356	-2,284	-1000000	-1000000	-1000000
113,40	-2,211	1,401	-2,417	-1000000	-1000000	-1000000
116,10	-2,325	1,446	-2,552	-1000000	-1000000	-1000000
118,80	-2,438	1,490	-2,685	-1000000	-1000000	-1000000
121,50	-2,551	1,536	-2,819	-1000000	-1000000	-1000000
124,20	-2,654	1,581	-2,937	-1000000	-1000000	-1000000
126,90	-2,757	1,627	-3,060	-1000000	-1000000	-1000000
129,60	-2,873	1,671	-3,196	-1000000	-1000000	-1000000
132,30	-2,989	1,716	-3,330	-1000000	-1000000	-1000000
135,00	-3,105	1,761	-3,465	-1000000	-1000000	-1000000
137,70	-3,220	1,805	-3,600	-1000000	-1000000	-1000000
140,40	-3,325	1,850	-3,722	-1000000	-1000000	-1000000
143,10	-3,441	1,896	-3,856	-1000000	-1000000	-1000000
145,80	-3,538	1,939	-3,969	-1000000	-1000000	-1000000
148,50	-3,657	1,985	-4,106	-1000000	-1000000	-1000000
151,20	-3,777	2,030	-4,244	-1000000	-1000000	-1000000
153,90	-3,896	2,074	-4,382	-1000000	-1000000	-1000000
156,60	-4,015	2,119	-4,519	-1000000	-1000000	-1000000
159,30	-4,135	2,165	-4,657	-1000000	-1000000	-1000000
162,00	-4,255	2,209	-4,793	-1000000	-1000000	-1000000
164,70	-4,363	2,255	-4,915	-1000000	-1000000	-1000000
167,40	-4,476	2,300	-5,044	-1000000	-1000000	-1000000
170,10	-4,602	2,345	-5,181	-1000000	-1000000	-1000000
172,80	-4,722	2,390	-5,318	-1000000	-1000000	-1000000
175,50	-4,844	2,435	-5,456	-1000000	-1000000	-1000000
178,20	-4,967	2,480	-5,592	-1000000	-1000000	-1000000
180,90	-5,088	2,525	-5,729	-1000000	-1000000	-1000000
183,60	-5,210	2,570	-5,867	-1000000	-1000000	-1000000
186,30	-5,332	2,614	-6,002	-1000000	-1000000	-1000000
189,00	-5,437	2,660	-6,119	-1000000	-1000000	-1000000
191,70	-5,560	2,705	-6,255	-1000000	-1000000	-1000000
194,40	-5,683	2,751	-6,393	-1000000	-1000000	-1000000
197,10	-5,806	2,795	-6,529	-1000000	-1000000	-1000000
199,80	-5,931	2,840	-6,666	-1000000	-1000000	-1000000
202,50	-6,053	2,885	-6,801	-1000000	-1000000	-1000000
205,20	-6,176	2,929	-6,937	-1000000	-1000000	-1000000
207,90	-6,297	2,974	-7,071	-1000000	-1000000	-1000000
210,60	-6,408	3,019	-7,193	-1000000	-1000000	-1000000
213,30	-6,525	3,065	-7,321	-1000000	-1000000	-1000000
216,00	-6,646	3,110	-7,453	-1000000	-1000000	-1000000
218,70	-6,767	3,155	-7,586	-1000000	-1000000	-1000000
221,40	-6,888	3,200	-7,718	-1000000	-1000000	-1000000
224,10	-7,010	3,245	-7,849	-1000000	-1000000	-1000000
226,80	-7,131	3,290	-7,982	-1000000	-1000000	-1000000
229,50	-7,252	3,335	-8,113	-1000000	-1000000	-1000000
232,20	-7,373	3,380	-8,244	-1000000	-1000000	-1000000
234,90	-7,481	3,426	-8,362	-1000000	-1000000	-1000000
237,60	-7,602	3,470	-8,491	-1000000	-1000000	-1000000
240,30	-7,727	3,515	-8,625	-1000000	-1000000	-1000000
243,00	-7,856	3,560	-8,765	-1000000	-1000000	-1000000
245,70	-7,986	3,604	-8,903	-1000000	-1000000	-1000000
248,40	-8,115	3,650	-9,043	-1000000	-1000000	-1000000
251,10	-8,244	3,694	-9,180	-1000000	-1000000	-1000000
253,80	-8,374	3,740	-9,320	-1000000	-1000000	-1000000
256,50	-8,504	3,784	-9,458	-1000000	-1000000	-1000000
259,20	-8,635	3,829	-9,596	-1000000	-1000000	-1000000
261,90	-8,722	3,861	-9,689	-1000000	-1000000	-1000000
264,60	-8,706	3,861	-9,672	-1000000	-1000000	-1000000
267,30	-8,694	3,861	-9,659	-1000000	-1000000	-1000000
270,00	-8,684	3,861	-9,649	-1000000	-1000000	-1000000
272,70	-8,674	3,861	-9,639	-1000000	-1000000	-1000000
275,40	-8,665	3,861	-9,630	-1000000	-1000000	-1000000
278,10	-8,658	3,861	-9,623	-1000000	-1000000	-1000000
280,80	-8,654	3,861	-9,615	-1000000	-1000000	-1000000
283,50	-8,645	3,861	-9,609	-1000000	-1000000	-1000000
286,20	-8,641	3,861	-9,603	-1000000	-1000000	-1000000
288,90	-8,633	3,861	-9,597	-1000000	-1000000	-1000000
291,60	-8,629	3,861	-9,591	-1000000	-1000000	-1000000
294,30	-8,625	3,861	-9,586	-1000000	-1000000	-1000000
297,00	-8,621	3,861	-9,581	-1000000	-1000000	-1000000
299,70	-8,614	3,861	-9,577	-1000000	-1000000	-1000000
302,40	-8,610	3,861	-9,573	-1000000	-1000000	-1000000
305,10	-8,605	3,862	-8,207	-1000000	-1000000	-1000000
307,80	-8,601	3,861	-3,917	-1000000	-1000000	-1000000
310,50	-8,597	3,861	-3,880	-1000000	-1000000	-1000000
313,20	-8,596	3,860	-3,869	-1000000	-1000000	-1000000
315,90	-8,592	3,861	-4,032	-1000000	-1000000	-1000000
318,60	-8,585	3,861	3,130	-1000000	-1000000	-1000000
321,30	-8,585	3,861	6,794	-1000000	-1000000	-1000000
324,00	-8,580	3,861	6,967	-1000000	-1000000	-1000000
326,70	-8,576	3,862	6,597	-1000000	-1000000	-1000000
329,40	-8,572	3,861	6,604	-1000000	-1000000	-1000000
332,10	-8,568	3,861	6,410	-1000000	-1000000	-1000000
334,80	-8,567	3,861	6,419	-1000000	-1000000	-1000000
337,50	-8,563	3,862	5,442	-1000000	-1000000	-1000000
340,20	-8,560	3,861	5,541	-1000000	-1000000	-1000000
342,90	-8,559	3,861	5,541	-1000000	-1000000	-1000000
345,60	-8,555	3,861	5,541	-1000000	-1000000	-1000000
348,30	-8,555	3,862	5,541	-1000000	-1000000	-1000000
351,00	-8,571	3,869	5,541	-1000000	-1000000	-1000000
353,70	-8,722	3,913	5,542	-1000000	-1000000	-1000000
356,40	-8,869	3,958	5,542	-1000000	-1000000	-1000000
359,10	-9,010	4,003	5,542	-1000000	-1000000	-1000000
361,80	-9,154	4,049	5,542	-1000000	-1000000	-1000000
364,50	-9,292	4,093	5,542	-1000000	-1000000	-1000000
367,20	-9,430	4,137	5,542	-1000000	-1000000	-1000000
369,90	-9,565	4,183	5,542	-1000000	-1000000	-1000000
372,60	-9,701	4,228	5,542	-1000000	-1000000	-1000000
375,30	-9,836	4,276	5,542	-1000000	-1000000	-1000000
378,00	-9,969	4,322	5,542	-1000000	-1000000	-1000000
380,70	-10,10	4,366	5,542	-1000000	-1000000	-1000000
383,40	-10,24	4,412	5,543	-1000000	-1000000	-1000000
386,10	-10,36	4,456	5,543	-1000000	-1000000	-1000000
388,80	-10,49	4,502	5,543	-1000000	-1000000	-1000000
391,50	-10,62	4,546	5,543	-1000000	-1000000	-1000000
394,20	-10,75	4,592	5,543	-1000000	-1000000	-1000000
396,90	-10,88	4,637	5,543	-1000000	-1000000	-1000000
399,60	-11,01	4,682	5,543	-1000000	-1000000	-1000000
402,30	-11,14	4,726	5,543	-1000000	-1000000	-1000000
405,00	-11,27	4,772	5,543	-1000000	-1000000	-1000000
407,70	-11,40	4,817	5,543	-1000000	-1000000	-1000000
410,40	-11,53	4,863	5,543	-1000000	-1000000	-1000000
413,10	-11,66	4,908	5,543	-1000000	-1000000	-1000000
415,80	-11,79	4,952	5,543	-1000000	-1000000	-1000000
418,50	-11,92	4,996	5,543	-1000000	-1000000	-1000000
421,20	-12,04	5,041	5,543	-1000000	-1000000	-1000000
423,90	-12,17	5,086	5,543	-1000000	-1000000	-1000000
426,60	-12,30	5,131	5,543	-1000000	-1000000	-1000000
429,30	-12,42	5,176	5,543	-1000000	-1000000	-1000000
432,00	-12,55	5,222	5,543	-1000000	-1000000	-1000000
434,70	-12,68	5,267	5,544	-1000000	-1000000	-1000000
437,40	-12,80	5,311	5,543	-1000000	-1000000	-1000000
440,10	-12,93	5,357	5,543	-1000000	-1000000	-1000000
442,80	-13,05	5,401	5,544	-1000000	-1000000	-1000000
445,50	-13,18	5,447	5,543	-1000000	-1000000	-1000000
448,20	-13,31	5,491	5,544	-1000000	-1000000	-1000000
450,90	-12,29	5,536	5,544	-1000000	-1000000	-1000000
453,60	-12,29	5,581	5,543	-1000000	-1000000	-1000000
456,30	-12,40	5,627	5,543	-1000000	-1000000	-1000000
459,00	-12,50	5,671	5,543	-1000000	-1000000	-1000000
461,70	-12,61	5,716	5,544	-1000000	-1000000	-1000000
464,40	-12,72	5,760	5,543	-1000000	-1000000	-1000000
467,10	-12,82	5,805	5,543	-1000000	-1000000	-1000000
469,80	-12,93	5,850	5,543	-1000000	-1000000	-1000000
472,50	-13,03	5,895	5,543	-1000000	-1000000	-1000000
475,20	-13,14	5,940	5,543	-1000000	-1000000	-1000000
477,90	-13,24	5,985	5,543	-1000000	-1000000	-1000000
480,60	-13,35	6,030	5,543	-1000000	-1000000	-1000000
483,30	-13,45	6,075	5,543	-1000000	-1000000	-1000000
486,00	-0,00015	6,120	5,543	-1000000	-1000000	-1000000
488,70	-0,00419	6,164	5,544	-1000000	-1000000	-1000000
491,40	-0,00635	6,210	5,544	-1000000	-1000000	-1000000
494,10	-0,00802	6,255	5,543	-1000000	-1000000	-1000000
496,80	-0,00866	6,299	5,544	-1000000	-1000000	-1000000
498,30	-0,00828	6,324	5,544	-1000000	-1000000	-1000000