File: notebooks/experimental_tests/results/carbon_tensile_tests/F10.txt
Zeit  1 - Standardmessrate [s]	Kraft [kN]	Weg [mm]	DD1 [Prom]	PMX_1 CH 3-2 [µm/m]	PMX_1 CH 3-3 [mm]	PMX_1 CH 3-4 [mm]
0	-0,06229	-4,698	-0,00036	-1000000	-1000000	-1000000
1,600	-0,06187	-4,702	-0,00099	-1000000	-1000000	-1000000
3,200	-0,06216	-4,700	-0,00243	-1000000	-1000000	-1000000
4,800	-0,06322	-4,672	-0,00500	-1000000	-1000000	-1000000
6,400	-0,06642	-4,645	-0,00707	-1000000	-1000000	-1000000
8,000	-0,06653	-4,619	-0,00887	-1000000	-1000000	-1000000
9,600	-0,06640	-4,592	-0,01062	-1000000	-1000000	-1000000
11,20	-0,06658	-4,566	-0,01241	-1000000	-1000000	-1000000
12,80	-0,06786	-4,539	-0,01431	-1000000	-1000000	-1000000
14,40	-0,06961	-4,513	-0,01588	-1000000	-1000000	-1000000
16,00	-0,07002	-4,485	-0,01754	-1000000	-1000000	-1000000
17,60	-0,07012	-4,459	-0,01903	-1000000	-1000000	-1000000
19,20	-0,07046	-4,432	-0,02061	-1000000	-1000000	-1000000
20,80	-0,07107	-4,406	-0,02220	-1000000	-1000000	-1000000
22,40	-0,07397	-4,379	-0,02359	-1000000	-1000000	-1000000
24,00	-0,07488	-4,353	-0,02496	-1000000	-1000000	-1000000
25,60	-0,07469	-4,326	-0,02639	-1000000	-1000000	-1000000
27,20	-0,07443	-4,298	-0,02800	-1000000	-1000000	-1000000
28,80	-0,07523	-4,273	-0,02936	-1000000	-1000000	-1000000
30,40	-0,07629	-4,245	-0,03073	-1000000	-1000000	-1000000
32,00	-0,07731	-4,219	-0,03219	-1000000	-1000000	-1000000
33,60	-0,07839	-4,192	-0,03350	-1000000	-1000000	-1000000
35,20	-0,07819	-4,165	-0,03474	-1000000	-1000000	-1000000
36,80	-0,07810	-4,139	-0,03601	-1000000	-1000000	-1000000
38,40	-0,07818	-4,113	-0,03741	-1000000	-1000000	-1000000
40,00	-0,07862	-4,085	-0,03871	-1000000	-1000000	-1000000
41,60	-0,08043	-4,059	-0,03999	-1000000	-1000000	-1000000
43,20	-0,08172	-4,034	-0,04123	-1000000	-1000000	-1000000
44,80	-0,08232	-4,006	-0,04246	-1000000	-1000000	-1000000
46,40	-0,08233	-3,980	-0,04390	-1000000	-1000000	-1000000
48,00	-0,08270	-3,953	-0,04501	-1000000	-1000000	-1000000
49,60	-0,08304	-3,926	-0,04610	-1000000	-1000000	-1000000
51,20	-0,08283	-3,899	-0,04709	-1000000	-1000000	-1000000
52,80	-0,08292	-3,873	-0,04804	-1000000	-1000000	-1000000
54,40	-0,08433	-3,846	-0,04918	-1000000	-1000000	-1000000
56,00	-0,08622	-3,820	-0,05005	-1000000	-1000000	-1000000
57,60	-0,08670	-3,793	-0,05105	-1000000	-1000000	-1000000
59,20	-0,08661	-3,766	-0,05194	-1000000	-1000000	-1000000
60,80	-0,08641	-3,740	-0,05284	-1000000	-1000000	-1000000
62,40	-0,08698	-3,713	-0,05365	-1000000	-1000000	-1000000
64,00	-0,08666	-3,686	-0,05461	-1000000	-1000000	-1000000
65,60	-0,08671	-3,659	-0,05536	-1000000	-1000000	-1000000
67,20	-0,08640	-3,632	-0,05618	-1000000	-1000000	-1000000
68,80	-0,08634	-3,606	-0,05698	-1000000	-1000000	-1000000
70,40	-0,08731	-3,579	-0,05799	-1000000	-1000000	-1000000
72,00	-0,08718	-3,553	-0,05874	-1000000	-1000000	-1000000
73,60	-0,08765	-3,526	-0,05935	-1000000	-1000000	-1000000
75,20	-0,08777	-3,500	-0,06004	-1000000	-1000000	-1000000
76,80	-0,08853	-3,473	-0,06083	-1000000	-1000000	-1000000
78,40	-0,08892	-3,447	-0,06148	-1000000	-1000000	-1000000
80,00	-0,08999	-3,420	-0,06197	-1000000	-1000000	-1000000
81,60	-0,08937	-3,394	-0,06247	-1000000	-1000000	-1000000
83,20	-0,08860	-3,367	-0,06287	-1000000	-1000000	-1000000
84,80	-0,08948	-3,340	-0,06331	-1000000	-1000000	-1000000
86,40	-0,08835	-3,314	-0,06380	-1000000	-1000000	-1000000
88,00	-0,08925	-3,286	-0,06425	-1000000	-1000000	-1000000
89,60	-0,08806	-3,260	-0,06442	-1000000	-1000000	-1000000
91,20	-0,08796	-3,233	-0,06481	-1000000	-1000000	-1000000
92,80	-0,08788	-3,207	-0,06537	-1000000	-1000000	-1000000
94,40	-0,08822	-3,180	-0,06573	-1000000	-1000000	-1000000
96,00	-0,08898	-3,154	-0,06623	-1000000	-1000000	-1000000
97,60	-0,08810	-3,126	-0,06669	-1000000	-1000000	-1000000
99,20	-0,08870	-3,100	-0,06713	-1000000	-1000000	-1000000
100,80	-0,08936	-3,072	-0,06757	-1000000	-1000000	-1000000
102,40	-0,08846	-3,046	-0,06808	-1000000	-1000000	-1000000
104,00	-0,08817	-3,020	-0,06845	-1000000	-1000000	-1000000
105,60	-0,08974	-2,993	-0,06887	-1000000	-1000000	-1000000
107,20	-0,08911	-2,966	-0,06977	-1000000	-1000000	-1000000
108,80	-0,08958	-2,939	-0,07016	-1000000	-1000000	-1000000
110,40	-0,08861	-2,913	-0,07038	-1000000	-1000000	-1000000
112,00	-0,08821	-2,886	-0,07082	-1000000	-1000000	-1000000
113,60	-0,08936	-2,860	-0,07115	-1000000	-1000000	-1000000
115,20	-0,08939	-2,833	-0,07140	-1000000	-1000000	-1000000
116,80	-0,08888	-2,808	-0,07188	-1000000	-1000000	-1000000
118,40	-0,08876	-2,781	-0,07206	-1000000	-1000000	-1000000
120,00	-0,08936	-2,754	-0,07261	-1000000	-1000000	-1000000
121,60	-0,08916	-2,727	-0,07281	-1000000	-1000000	-1000000
123,20	-0,08821	-2,700	-0,07310	-1000000	-1000000	-1000000
124,80	-0,08896	-2,674	-0,07341	-1000000	-1000000	-1000000
126,40	-0,08764	-2,647	-0,07377	-1000000	-1000000	-1000000
128,00	-0,08846	-2,620	-0,07415	-1000000	-1000000	-1000000
129,60	-0,08841	-2,594	-0,07440	-1000000	-1000000	-1000000
131,20	-0,08719	-2,567	-0,07471	-1000000	-1000000	-1000000
132,80	-0,08782	-2,540	-0,07511	-1000000	-1000000	-1000000
134,40	-0,08772	-2,514	-0,07521	-1000000	-1000000	-1000000
136,00	-0,08756	-2,486	-0,07565	-1000000	-1000000	-1000000
137,60	-0,08420	-2,460	-0,07105	-1000000	-1000000	-1000000
139,20	-0,08197	-2,434	-0,06870	-1000000	-1000000	-1000000
140,80	-0,08168	-2,407	-0,06889	-1000000	-1000000	-1000000
142,40	-0,07945	-2,380	-0,06935	-1000000	-1000000	-1000000
144,00	-0,07872	-2,354	-0,06975	-1000000	-1000000	-1000000
145,60	-0,07849	-2,327	-0,06997	-1000000	-1000000	-1000000
147,20	-0,07853	-2,300	-0,07067	-1000000	-1000000	-1000000
148,80	-0,07847	-2,274	-0,07093	-1000000	-1000000	-1000000
150,40	-0,07873	-2,247	-0,07123	-1000000	-1000000	-1000000
152,00	-0,07857	-2,220	-0,07146	-1000000	-1000000	-1000000
153,60	-0,07898	-2,194	-0,07185	-1000000	-1000000	-1000000
155,20	-0,07860	-2,167	-0,07205	-1000000	-1000000	-1000000
156,80	-0,07829	-2,141	-0,07227	-1000000	-1000000	-1000000
158,40	-0,07850	-2,114	-0,07253	-1000000	-1000000	-1000000
160,00	-0,07869	-2,087	-0,07279	-1000000	-1000000	-1000000
161,60	-0,07874	-2,061	-0,07325	-1000000	-1000000	-1000000
163,20	-0,07890	-2,034	-0,07350	-1000000	-1000000	-1000000
164,80	-0,07828	-2,008	-0,07364	-1000000	-1000000	-1000000
166,40	-0,07699	-1,981	-0,07398	-1000000	-1000000	-1000000
168,00	-0,07710	-1,954	-0,07426	-1000000	-1000000	-1000000
169,60	-0,07693	-1,927	-0,07453	-1000000	-1000000	-1000000
171,20	-0,07673	-1,902	-0,07486	-1000000	-1000000	-1000000
172,80	-0,07484	-1,874	-0,07519	-1000000	-1000000	-1000000
174,40	-0,07590	-1,847	-0,07554	-1000000	-1000000	-1000000
176,00	-0,07554	-1,821	-0,07599	-1000000	-1000000	-1000000
177,60	-0,07441	-1,795	-0,07636	-1000000	-1000000	-1000000
179,20	-0,07522	-1,767	-0,07658	-1000000	-1000000	-1000000
180,80	-0,07570	-1,741	-0,07693	-1000000	-1000000	-1000000
182,40	-0,07574	-1,714	-0,07722	-1000000	-1000000	-1000000
184,00	-0,07492	-1,687	-0,07779	-1000000	-1000000	-1000000
185,60	-0,07508	-1,661	-0,07793	-1000000	-1000000	-1000000
187,20	-0,07496	-1,634	-0,07812	-1000000	-1000000	-1000000
188,80	-0,07501	-1,608	-0,07846	-1000000	-1000000	-1000000
190,40	-0,07518	-1,581	-0,07876	-1000000	-1000000	-1000000
192,00	-0,07531	-1,555	-0,07913	-1000000	-1000000	-1000000
193,60	-0,07486	-1,528	-0,07922	-1000000	-1000000	-1000000
195,20	-0,07495	-1,501	-0,07954	-1000000	-1000000	-1000000
196,80	-0,07519	-1,475	-0,07993	-1000000	-1000000	-1000000
198,40	-0,07524	-1,447	-0,08027	-1000000	-1000000	-1000000
200,00	-0,07539	-1,422	-0,08043	-1000000	-1000000	-1000000
201,60	-0,07529	-1,394	-0,08073	-1000000	-1000000	-1000000
203,20	-0,07576	-1,368	-0,08100	-1000000	-1000000	-1000000
204,80	-0,07532	-1,341	-0,08125	-1000000	-1000000	-1000000
206,40	-0,07529	-1,315	-0,08160	-1000000	-1000000	-1000000
208,00	-0,07527	-1,288	-0,08198	-1000000	-1000000	-1000000
209,60	-0,07524	-1,261	-0,08224	-1000000	-1000000	-1000000
211,20	-0,07539	-1,235	-0,08236	-1000000	-1000000	-1000000
212,80	-0,07528	-1,208	-0,08260	-1000000	-1000000	-1000000
214,40	-0,07515	-1,182	-0,08297	-1000000	-1000000	-1000000
216,00	-0,07524	-1,154	-0,08314	-1000000	-1000000	-1000000
217,60	-0,07485	-1,128	-0,08346	-1000000	-1000000	-1000000
219,20	-0,07403	-1,101	-0,08403	-1000000	-1000000	-1000000
220,80	-0,07412	-1,075	-0,08432	-1000000	-1000000	-1000000
222,40	-0,07422	-1,048	-0,08440	-1000000	-1000000	-1000000
224,00	-0,07414	-1,021	-0,08477	-1000000	-1000000	-1000000
225,60	-0,07319	-0,9946	-0,08504	-1000000	-1000000	-1000000
227,20	-0,07283	-0,9681	-0,08531	-1000000	-1000000	-1000000
228,80	-0,07228	-0,9414	-0,08549	-1000000	-1000000	-1000000
230,40	-0,07095	-0,9146	-0,08571	-1000000	-1000000	-1000000
232,00	-0,07055	-0,8882	-0,08591	-1000000	-1000000	-1000000
233,60	-0,07080	-0,8611	-0,08609	-1000000	-1000000	-1000000
235,20	-0,07113	-0,8351	-0,08628	-1000000	-1000000	-1000000
236,80	-0,07073	-0,8082	-0,08641	-1000000	-1000000	-1000000
238,40	-0,07039	-0,7817	-0,08689	-1000000	-1000000	-1000000
240,00	-0,07073	-0,7545	-0,08696	-1000000	-1000000	-1000000
241,60	-0,07058	-0,7292	-0,08725	-1000000	-1000000	-1000000
243,20	-0,07075	-0,7022	-0,08749	-1000000	-1000000	-1000000
244,80	-0,07089	-0,6751	-0,08783	-1000000	-1000000	-1000000
246,40	-0,07069	-0,6489	-0,08772	-1000000	-1000000	-1000000
248,00	-0,07065	-0,6215	-0,08806	-1000000	-1000000	-1000000
249,60	-0,07043	-0,5958	-0,08840	-1000000	-1000000	-1000000
251,20	-0,07042	-0,5686	-0,08869	-1000000	-1000000	-1000000
252,80	-0,07064	-0,5423	-0,08888	-1000000	-1000000	-1000000
254,40	-0,07018	-0,5150	-0,08926	-1000000	-1000000	-1000000
256,00	-0,06634	-0,5067	-0,08810	-1000000	-1000000	-1000000
257,60	-0,06669	-0,5062	-0,08730	-1000000	-1000000	-1000000
259,20	-0,06640	-0,5062	-0,08688	-1000000	-1000000	-1000000
260,80	-0,06647	-0,5065	-0,08688	-1000000	-1000000	-1000000
262,00	-0,06323	-0,5063	-0,08683	-1000000	-1000000	-1000000