File: notebooks/experimental_tests/results/carbon_tensile_tests/F2.txt
Zeit  1 - Standardmessrate [s]	Kraft [kN]	Weg [mm]	DD1 [Prom]	PMX_1 CH 3-2 [µm/m]	PMX_1 CH 3-3 [mm]	PMX_1 CH 3-4 [mm]
0	-0,01863	0,00034	0,000	-1000000	-1000000	-1000000
6,000	-0,06095	0,05498	-0,08086	-1000000	-1000000	-1000000
12,00	-0,1448	0,1555	-0,2130	-1000000	-1000000	-1000000
18,00	-0,2405	0,2548	-0,3399	-1000000	-1000000	-1000000
24,00	-0,2651	0,3549	-0,3719	-1000000	-1000000	-1000000
30,00	-0,2854	0,4550	-0,3959	-1000000	-1000000	-1000000
36,00	-0,3343	0,5553	-0,4593	-1000000	-1000000	-1000000
42,00	-0,3819	0,6552	-0,5187	-1000000	-1000000	-1000000
48,00	-0,4934	0,7542	-0,6562	-1000000	-1000000	-1000000
54,00	-0,5884	0,8544	-0,7692	-1000000	-1000000	-1000000
60,00	-0,7654	0,9543	-0,9865	-1000000	-1000000	-1000000
66,00	-0,9587	1,055	-1,221	-1000000	-1000000	-1000000
72,00	-1,162	1,154	-1,467	-1000000	-1000000	-1000000
78,00	-1,374	1,254	-1,721	-1000000	-1000000	-1000000
84,00	-1,596	1,354	-1,987	-1000000	-1000000	-1000000
90,00	-1,821	1,454	-2,253	-1000000	-1000000	-1000000
96,00	-2,050	1,554	-2,525	-1000000	-1000000	-1000000
102,00	-2,283	1,654	-2,798	-1000000	-1000000	-1000000
108,00	-2,518	1,754	-3,073	-1000000	-1000000	-1000000
114,00	-2,758	1,854	-3,351	-1000000	-1000000	-1000000
120,00	-2,999	1,954	-3,630	-1000000	-1000000	-1000000
126,00	-3,243	2,054	-3,909	-1000000	-1000000	-1000000
132,00	-3,498	2,154	-4,198	-1000000	-1000000	-1000000
138,00	-3,752	2,254	-4,487	-1000000	-1000000	-1000000
144,00	-4,001	2,353	-4,768	-1000000	-1000000	-1000000
150,00	-4,249	2,454	-5,047	-1000000	-1000000	-1000000
156,00	-4,503	2,553	-5,330	-1000000	-1000000	-1000000
162,00	-4,760	2,654	-5,611	-1000000	-1000000	-1000000
168,00	-5,009	2,753	-5,886	-1000000	-1000000	-1000000
174,00	-5,271	2,853	-6,173	-1000000	-1000000	-1000000
180,00	-5,539	2,952	-6,466	-1000000	-1000000	-1000000
186,00	-5,777	3,053	-6,738	-1000000	-1000000	-1000000
192,00	-6,058	3,153	-7,044	-1000000	-1000000	-1000000
198,00	-6,340	3,252	-7,349	-1000000	-1000000	-1000000
204,00	-6,622	3,353	-7,653	-1000000	-1000000	-1000000
210,00	-6,680	3,452	-7,641	-1000000	-1000000	-1000000
216,00	-6,940	3,553	-7,920	-1000000	-1000000	-1000000
222,00	-7,208	3,652	-8,207	-1000000	-1000000	-1000000
228,00	-7,476	3,753	-8,491	-1000000	-1000000	-1000000
234,00	-7,745	3,853	-8,774	-1000000	-1000000	-1000000
240,00	-8,015	3,953	-9,059	-1000000	-1000000	-1000000
246,00	-8,285	4,052	-9,344	-1000000	-1000000	-1000000
252,00	-8,558	4,152	-9,628	-1000000	-1000000	-1000000
258,00	-8,612	4,184	-9,684	-1000000	-1000000	-1000000
264,00	-8,552	4,184	-28,47	-1000000	-1000000	-1000000
270,00	-8,520	4,184	1,094	-1000000	-1000000	-1000000
276,00	-8,503	4,183	0,8636	-1000000	-1000000	-1000000
282,00	-8,487	4,183	0,7224	-1000000	-1000000	-1000000
288,00	-8,475	4,184	0,7244	-1000000	-1000000	-1000000
294,00	-8,462	4,184	0,7258	-1000000	-1000000	-1000000
300,00	-8,454	4,184	0,7269	-1000000	-1000000	-1000000
306,00	-8,446	4,184	0,7278	-1000000	-1000000	-1000000
312,00	-8,493	4,200	0,7285	-1000000	-1000000	-1000000
318,00	-8,807	4,298	0,7292	-1000000	-1000000	-1000000
324,00	-9,108	4,399	0,7298	-1000000	-1000000	-1000000
330,00	-9,390	4,499	0,7301	-1000000	-1000000	-1000000
336,00	-9,666	4,599	0,7305	-1000000	-1000000	-1000000
342,00	-9,924	4,699	0,7308	-1000000	-1000000	-1000000
348,00	-10,18	4,799	0,7312	-1000000	-1000000	-1000000
354,00	-10,44	4,899	0,7315	-1000000	-1000000	-1000000
360,00	-10,71	4,999	0,7318	-1000000	-1000000	-1000000
366,00	-10,97	5,098	0,7321	-1000000	-1000000	-1000000
372,00	-11,22	5,198	0,7322	-1000000	-1000000	-1000000
378,00	-11,48	5,299	0,7325	-1000000	-1000000	-1000000
384,00	-11,73	5,403	0,7326	-1000000	-1000000	-1000000
390,00	-11,98	5,503	0,7329	-1000000	-1000000	-1000000
396,00	-12,23	5,603	0,7331	-1000000	-1000000	-1000000
402,00	-11,07	5,703	0,7332	-1000000	-1000000	-1000000
408,00	-11,42	5,804	0,7333	-1000000	-1000000	-1000000
414,00	-11,77	5,904	0,7336	-1000000	-1000000	-1000000
420,00	-12,10	6,003	0,7337	-1000000	-1000000	-1000000
426,00	-12,41	6,103	0,7339	-1000000	-1000000	-1000000
432,00	-12,70	6,202	0,7339	-1000000	-1000000	-1000000
438,00	-12,98	6,303	0,7340	-1000000	-1000000	-1000000
444,00	-13,25	6,402	0,7342	-1000000	-1000000	-1000000
450,00	-13,51	6,503	0,7342	-1000000	-1000000	-1000000
456,00	-13,71	6,602	0,7345	-1000000	-1000000	-1000000
462,00	-13,94	6,703	0,7345	-1000000	-1000000	-1000000
468,00	-14,16	6,801	0,7346	-1000000	-1000000	-1000000
474,00	-11,32	6,901	0,7348	-1000000	-1000000	-1000000
480,00	-11,70	7,001	0,7348	-1000000	-1000000	-1000000
486,00	-12,06	7,100	0,7350	-1000000	-1000000	-1000000
492,00	-12,40	7,200	0,7349	-1000000	-1000000	-1000000
498,00	-12,75	7,300	0,7352	-1000000	-1000000	-1000000
504,00	-13,08	7,400	0,7352	-1000000	-1000000	-1000000
510,00	-13,41	7,500	0,7353	-1000000	-1000000	-1000000
516,00	-13,75	7,600	0,7354	-1000000	-1000000	-1000000
522,00	-14,07	7,700	0,7356	-1000000	-1000000	-1000000
528,00	-14,36	7,799	0,7355	-1000000	-1000000	-1000000
534,00	-14,62	7,900	0,7355	-1000000	-1000000	-1000000
540,00	-14,86	7,999	0,7356	-1000000	-1000000	-1000000
546,00	-15,10	8,099	0,7358	-1000000	-1000000	-1000000
552,00	-3,405	8,198	0,7348	-1000000	-1000000	-1000000
558,00	-3,686	8,298	0,7348	-1000000	-1000000	-1000000
564,00	-3,947	8,399	0,7349	-1000000	-1000000	-1000000
570,00	-4,203	8,498	0,7348	-1000000	-1000000	-1000000
576,00	-4,459	8,599	0,7350	-1000000	-1000000	-1000000
582,00	-4,718	8,698	0,7351	-1000000	-1000000	-1000000
588,00	-4,974	8,798	0,7351	-1000000	-1000000	-1000000
594,00	-5,233	8,898	0,7352	-1000000	-1000000	-1000000
600,00	-5,501	8,998	0,7352	-1000000	-1000000	-1000000
606,00	-5,735	9,099	0,7353	-1000000	-1000000	-1000000
612,00	-5,985	9,198	0,7353	-1000000	-1000000	-1000000
618,00	-6,228	9,299	0,7354	-1000000	-1000000	-1000000
624,00	-6,474	9,398	0,7354	-1000000	-1000000	-1000000
630,00	-6,720	9,498	0,7355	-1000000	-1000000	-1000000
636,00	-6,970	9,598	0,7356	-1000000	-1000000	-1000000
642,00	-7,220	9,698	0,7356	-1000000	-1000000	-1000000
648,00	-7,472	9,798	0,7357	-1000000	-1000000	-1000000
654,00	-7,725	9,898	0,7357	-1000000	-1000000	-1000000
660,00	-7,979	9,999	0,7357	-1000000	-1000000	-1000000
666,00	-8,236	10,10	0,7357	-1000000	-1000000	-1000000
672,00	-8,493	10,20	0,7358	-1000000	-1000000	-1000000
678,00	-8,750	10,30	0,7359	-1000000	-1000000	-1000000
684,00	-9,008	10,40	0,7358	-1000000	-1000000	-1000000
690,00	-9,270	10,50	0,7359	-1000000	-1000000	-1000000
696,00	-9,529	10,60	0,7360	-1000000	-1000000	-1000000
702,00	-9,786	10,70	0,7359	-1000000	-1000000	-1000000
708,00	-10,04	10,80	0,7360	-1000000	-1000000	-1000000
714,00	-10,30	10,90	0,7360	-1000000	-1000000	-1000000
720,00	-10,55	11,00	0,7360	-1000000	-1000000	-1000000
726,00	-10,80	11,10	0,7360	-1000000	-1000000	-1000000
732,00	-11,05	11,20	0,7362	-1000000	-1000000	-1000000
738,00	-11,30	11,30	0,7363	-1000000	-1000000	-1000000
744,00	-11,54	11,40	0,7362	-1000000	-1000000	-1000000
750,00	-3,128	11,50	0,7360	-1000000	-1000000	-1000000
756,00	-3,426	11,60	0,7359	-1000000	-1000000	-1000000
762,00	-3,693	11,70	0,7360	-1000000	-1000000	-1000000
768,00	-3,949	11,80	0,7361	-1000000	-1000000	-1000000
774,00	-4,201	11,90	0,7360	-1000000	-1000000	-1000000
780,00	-4,454	12,00	0,7361	-1000000	-1000000	-1000000
786,00	-4,710	12,10	0,7361	-1000000	-1000000	-1000000
792,00	-4,963	12,20	0,7362	-1000000	-1000000	-1000000
798,00	-5,214	12,30	0,7361	-1000000	-1000000	-1000000
804,00	-5,482	12,40	0,7362	-1000000	-1000000	-1000000
810,00	-5,721	12,50	0,7362	-1000000	-1000000	-1000000
816,00	-5,970	12,60	0,7363	-1000000	-1000000	-1000000
822,00	-6,220	12,70	0,7363	-1000000	-1000000	-1000000
828,00	-6,470	12,80	0,7363	-1000000	-1000000	-1000000
834,00	-6,721	12,90	0,7364	-1000000	-1000000	-1000000
840,00	-6,971	13,00	0,7364	-1000000	-1000000	-1000000
846,00	-7,223	13,10	0,7365	-1000000	-1000000	-1000000
852,00	-7,476	13,20	0,7364	-1000000	-1000000	-1000000
858,00	-7,731	13,30	0,7365	-1000000	-1000000	-1000000
864,00	-7,985	13,40	0,7365	-1000000	-1000000	-1000000
870,00	-8,242	13,50	0,7365	-1000000	-1000000	-1000000
876,00	-8,501	13,60	0,7367	-1000000	-1000000	-1000000
882,00	-8,759	13,70	0,7366	-1000000	-1000000	-1000000
888,00	-9,017	13,80	0,7366	-1000000	-1000000	-1000000
894,00	-9,279	13,90	0,7369	-1000000	-1000000	-1000000
900,00	-9,535	14,00	0,7367	-1000000	-1000000	-1000000
906,00	-9,790	14,10	0,7367	-1000000	-1000000	-1000000
912,00	-10,04	14,20	0,7367	-1000000	-1000000	-1000000
918,00	-10,29	14,30	0,7368	-1000000	-1000000	-1000000
924,00	-10,53	14,40	0,7368	-1000000	-1000000	-1000000
930,00	-10,77	14,50	0,7369	-1000000	-1000000	-1000000
936,00	-11,00	14,60	0,7368	-1000000	-1000000	-1000000
942,00	-11,23	14,70	0,7369	-1000000	-1000000	-1000000
948,00	-11,47	14,80	0,7371	-1000000	-1000000	-1000000
954,00	-11,70	14,90	0,7370	-1000000	-1000000	-1000000
960,00	-11,93	15,00	0,7371	-1000000	-1000000	-1000000
966,00	-12,16	15,10	0,7370	-1000000	-1000000	-1000000
972,00	-12,39	15,20	0,7370	-1000000	-1000000	-1000000
978,00	-12,63	15,30	0,7372	-1000000	-1000000	-1000000
984,00	-12,86	15,40	0,7372	-1000000	-1000000	-1000000
990,00	-13,09	15,50	0,7372	-1000000	-1000000	-1000000
996,00	-13,33	15,60	0,7372	-1000000	-1000000	-1000000
1002,0	-13,56	15,70	0,7372	-1000000	-1000000	-1000000
1008,0	-12,28	15,80	0,7373	-1000000	-1000000	-1000000
1014,0	-12,60	15,90	0,7372	-1000000	-1000000	-1000000
1020,0	-12,91	16,00	0,7371	-1000000	-1000000	-1000000
1026,0	-12,54	16,10	0,7372	-1000000	-1000000	-1000000
1032,0	-8,999	16,20	0,7373	-1000000	-1000000	-1000000
1038,0	-9,262	16,30	0,7373	-1000000	-1000000	-1000000
1044,0	-9,517	16,40	0,7373	-1000000	-1000000	-1000000
1050,0	-9,764	16,50	0,7373	-1000000	-1000000	-1000000
1056,0	-9,997	16,60	0,7374	-1000000	-1000000	-1000000
1062,0	-10,23	16,70	0,7373	-1000000	-1000000	-1000000
1068,0	-10,45	16,80	0,7375	-1000000	-1000000	-1000000
1074,0	-10,62	16,90	0,7374	-1000000	-1000000	-1000000
1080,0	-0,00076	17,00	0,7360	-1000000	-1000000	-1000000
1086,0	-0,00557	17,10	0,7359	-1000000	-1000000	-1000000
1092,0	-0,00691	17,12	0,7361	-1000000	-1000000	-1000000
1096,8	-0,00955	17,12	0,7360	-1000000	-1000000	-1000000