File: notebooks/experimental_tests/results/carbon_tensile_tests/F3.txt
Zeit  1 - Standardmessrate [s]	Kraft [kN]	Weg [mm]	DD1 [Prom]	PMX_1 CH 3-2 [µm/m]	PMX_1 CH 3-3 [mm]	PMX_1 CH 3-4 [mm]
0	-0,02863	0,000	0,000	-1000000	-1000000	-1000000
2,600	-0,02865	0,000	0,000	-1000000	-1000000	-1000000
5,200	-0,07038	0,04527	-0,07891	-1000000	-1000000	-1000000
7,800	-0,1060	0,08870	-0,1406	-1000000	-1000000	-1000000
10,40	-0,1442	0,1329	-0,2008	-1000000	-1000000	-1000000
13,00	-0,1874	0,1759	-0,2637	-1000000	-1000000	-1000000
15,60	-0,2300	0,2195	-0,3231	-1000000	-1000000	-1000000
18,20	-0,2475	0,2633	-0,3469	-1000000	-1000000	-1000000
20,80	-0,2628	0,3061	-0,3683	-1000000	-1000000	-1000000
23,40	-0,2648	0,3491	-0,3707	-1000000	-1000000	-1000000
26,00	-0,2743	0,3930	-0,3807	-1000000	-1000000	-1000000
28,60	-0,2893	0,4360	-0,3995	-1000000	-1000000	-1000000
31,20	-0,3008	0,4796	-0,4141	-1000000	-1000000	-1000000
33,80	-0,3219	0,5224	-0,4407	-1000000	-1000000	-1000000
36,40	-0,3300	0,5657	-0,4501	-1000000	-1000000	-1000000
39,00	-0,3436	0,6091	-0,4687	-1000000	-1000000	-1000000
41,60	-0,3844	0,6528	-0,5210	-1000000	-1000000	-1000000
44,20	-0,4196	0,6949	-0,5642	-1000000	-1000000	-1000000
46,80	-0,4477	0,7388	-0,5999	-1000000	-1000000	-1000000
49,40	-0,4807	0,7826	-0,6414	-1000000	-1000000	-1000000
52,00	-0,4523	0,8253	-0,6079	-1000000	-1000000	-1000000
54,60	-0,5376	0,8691	-0,7132	-1000000	-1000000	-1000000
57,20	-0,5877	0,9119	-0,7735	-1000000	-1000000	-1000000
59,80	-0,6421	0,9554	-0,8407	-1000000	-1000000	-1000000
62,40	-0,7022	0,9987	-0,9136	-1000000	-1000000	-1000000
65,00	-0,7621	1,041	-0,9858	-1000000	-1000000	-1000000
67,60	-0,8224	1,085	-1,060	-1000000	-1000000	-1000000
70,20	-0,8887	1,128	-1,141	-1000000	-1000000	-1000000
72,80	-0,9596	1,171	-1,225	-1000000	-1000000	-1000000
75,40	-1,033	1,216	-1,313	-1000000	-1000000	-1000000
78,00	-1,110	1,258	-1,406	-1000000	-1000000	-1000000
80,60	-1,188	1,302	-1,499	-1000000	-1000000	-1000000
83,20	-1,268	1,346	-1,595	-1000000	-1000000	-1000000
85,80	-1,350	1,388	-1,692	-1000000	-1000000	-1000000
88,40	-1,433	1,432	-1,791	-1000000	-1000000	-1000000
91,00	-1,519	1,475	-1,892	-1000000	-1000000	-1000000
93,60	-1,605	1,518	-1,993	-1000000	-1000000	-1000000
96,20	-1,689	1,561	-2,093	-1000000	-1000000	-1000000
98,80	-1,778	1,605	-2,197	-1000000	-1000000	-1000000
101,40	-1,864	1,649	-2,299	-1000000	-1000000	-1000000
104,00	-1,954	1,692	-2,403	-1000000	-1000000	-1000000
106,60	-2,040	1,736	-2,504	-1000000	-1000000	-1000000
109,20	-2,131	1,779	-2,609	-1000000	-1000000	-1000000
111,80	-2,220	1,823	-2,711	-1000000	-1000000	-1000000
114,40	-2,312	1,866	-2,818	-1000000	-1000000	-1000000
117,00	-2,404	1,907	-2,924	-1000000	-1000000	-1000000
119,60	-2,493	1,951	-3,026	-1000000	-1000000	-1000000
122,20	-2,587	1,995	-3,134	-1000000	-1000000	-1000000
124,80	-2,680	2,038	-3,241	-1000000	-1000000	-1000000
127,40	-2,771	2,082	-3,345	-1000000	-1000000	-1000000
130,00	-2,867	2,125	-3,453	-1000000	-1000000	-1000000
132,60	-2,961	2,167	-3,561	-1000000	-1000000	-1000000
135,20	-3,054	2,213	-3,666	-1000000	-1000000	-1000000
137,80	-3,150	2,254	-3,774	-1000000	-1000000	-1000000
140,40	-3,246	2,298	-3,882	-1000000	-1000000	-1000000
143,00	-3,342	2,342	-3,991	-1000000	-1000000	-1000000
145,60	-3,437	2,385	-4,097	-1000000	-1000000	-1000000
148,20	-3,469	2,428	-4,131	-1000000	-1000000	-1000000
150,80	-3,568	2,471	-4,244	-1000000	-1000000	-1000000
153,40	-3,665	2,515	-4,353	-1000000	-1000000	-1000000
156,00	-3,761	2,559	-4,461	-1000000	-1000000	-1000000
158,60	-3,857	2,601	-4,570	-1000000	-1000000	-1000000
161,20	-3,949	2,645	-4,672	-1000000	-1000000	-1000000
163,80	-4,049	2,688	-4,784	-1000000	-1000000	-1000000
166,40	-4,144	2,732	-4,891	-1000000	-1000000	-1000000
169,00	-4,247	2,775	-5,006	-1000000	-1000000	-1000000
171,60	-4,345	2,818	-5,114	-1000000	-1000000	-1000000
174,20	-4,439	2,861	-5,217	-1000000	-1000000	-1000000
176,80	-4,548	2,904	-5,332	-1000000	-1000000	-1000000
179,40	-4,652	2,948	-5,447	-1000000	-1000000	-1000000
182,00	-4,754	2,991	-5,558	-1000000	-1000000	-1000000
184,60	-4,862	3,034	-5,677	-1000000	-1000000	-1000000
187,20	-4,963	3,078	-5,787	-1000000	-1000000	-1000000
189,80	-5,070	3,120	-5,904	-1000000	-1000000	-1000000
192,40	-5,161	3,164	-6,004	-1000000	-1000000	-1000000
195,00	-5,268	3,207	-6,118	-1000000	-1000000	-1000000
197,60	-5,377	3,251	-6,237	-1000000	-1000000	-1000000
200,20	-5,479	3,294	-6,346	-1000000	-1000000	-1000000
202,80	-5,584	3,337	-6,460	-1000000	-1000000	-1000000
205,40	-5,689	3,381	-6,573	-1000000	-1000000	-1000000
208,00	-5,803	3,424	-6,695	-1000000	-1000000	-1000000
210,60	-5,908	3,467	-6,808	-1000000	-1000000	-1000000
213,20	-6,015	3,510	-6,921	-1000000	-1000000	-1000000
215,80	-6,126	3,554	-7,041	-1000000	-1000000	-1000000
218,40	-6,224	3,597	-7,145	-1000000	-1000000	-1000000
221,00	-6,327	3,640	-7,254	-1000000	-1000000	-1000000
223,60	-6,436	3,684	-7,371	-1000000	-1000000	-1000000
226,20	-6,535	3,728	-7,474	-1000000	-1000000	-1000000
228,80	-6,641	3,770	-7,586	-1000000	-1000000	-1000000
231,40	-6,744	3,814	-7,693	-1000000	-1000000	-1000000
234,00	-6,853	3,857	-7,808	-1000000	-1000000	-1000000
236,60	-6,957	3,901	-7,918	-1000000	-1000000	-1000000
239,20	-7,067	3,944	-8,033	-1000000	-1000000	-1000000
241,80	-7,103	3,986	-8,061	-1000000	-1000000	-1000000
244,40	-7,198	4,030	-8,157	-1000000	-1000000	-1000000
247,00	-7,313	4,073	-8,281	-1000000	-1000000	-1000000
249,60	-7,410	4,116	-8,384	-1000000	-1000000	-1000000
252,20	-7,525	4,161	-8,506	-1000000	-1000000	-1000000
254,80	-7,627	4,203	-8,611	-1000000	-1000000	-1000000
257,40	-7,729	4,247	-8,717	-1000000	-1000000	-1000000
260,00	-7,834	4,291	-8,825	-1000000	-1000000	-1000000
262,60	-7,950	4,334	-8,945	-1000000	-1000000	-1000000
265,20	-8,047	4,377	-9,045	-1000000	-1000000	-1000000
267,80	-8,155	4,421	-9,156	-1000000	-1000000	-1000000
270,40	-8,232	4,464	-9,242	-1000000	-1000000	-1000000
273,00	-8,353	4,507	-9,370	-1000000	-1000000	-1000000
275,60	-8,453	4,551	-9,469	-1000000	-1000000	-1000000
278,20	-8,575	4,593	-9,594	-1000000	-1000000	-1000000
280,80	-8,688	4,637	-9,710	-1000000	-1000000	-1000000
283,40	-8,762	4,681	-9,784	-1000000	-1000000	-1000000
286,00	-8,883	4,724	-9,909	-1000000	-1000000	-1000000
288,60	-8,947	4,755	-9,969	-1000000	-1000000	-1000000
291,20	-8,934	4,755	-9,958	-1000000	-1000000	-1000000
293,80	-8,926	4,756	-9,950	-1000000	-1000000	-1000000
296,40	-8,919	4,756	-10,17	-1000000	-1000000	-1000000
299,00	-8,912	4,756	3,648	-1000000	-1000000	-1000000
301,60	-8,906	4,756	2,403	-1000000	-1000000	-1000000
304,20	-8,900	4,756	2,429	-1000000	-1000000	-1000000
306,80	-8,895	4,756	2,518	-1000000	-1000000	-1000000
309,40	-8,874	4,756	2,529	-1000000	-1000000	-1000000
312,00	-8,870	4,756	2,528	-1000000	-1000000	-1000000
314,60	-8,866	4,756	2,527	-1000000	-1000000	-1000000
317,20	-8,863	4,755	2,529	-1000000	-1000000	-1000000
319,80	-8,859	4,756	2,530	-1000000	-1000000	-1000000
322,40	-8,857	4,756	2,531	-1000000	-1000000	-1000000
325,00	-8,951	4,785	2,531	-1000000	-1000000	-1000000
327,60	-9,045	4,830	2,532	-1000000	-1000000	-1000000
330,20	-9,180	4,873	2,533	-1000000	-1000000	-1000000
332,80	-9,307	4,916	2,533	-1000000	-1000000	-1000000
335,40	-9,431	4,959	2,533	-1000000	-1000000	-1000000
338,00	-9,533	5,003	2,534	-1000000	-1000000	-1000000
340,60	-9,657	5,047	2,534	-1000000	-1000000	-1000000
343,20	-9,769	5,089	2,534	-1000000	-1000000	-1000000
345,80	-9,886	5,133	2,534	-1000000	-1000000	-1000000
348,40	-9,960	5,176	2,535	-1000000	-1000000	-1000000
351,00	-10,08	5,219	2,535	-1000000	-1000000	-1000000
353,60	-10,19	5,263	2,535	-1000000	-1000000	-1000000
356,20	-10,31	5,306	2,535	-1000000	-1000000	-1000000
358,80	-10,42	5,354	2,536	-1000000	-1000000	-1000000
361,40	-10,49	5,397	2,536	-1000000	-1000000	-1000000
364,00	-10,61	5,440	2,536	-1000000	-1000000	-1000000
366,60	-10,71	5,484	2,536	-1000000	-1000000	-1000000
369,20	-10,83	5,528	2,537	-1000000	-1000000	-1000000
371,80	-10,95	5,570	2,537	-1000000	-1000000	-1000000
374,40	-11,02	5,614	2,537	-1000000	-1000000	-1000000
377,00	-11,14	5,657	2,537	-1000000	-1000000	-1000000
379,60	-11,24	5,701	2,537	-1000000	-1000000	-1000000
382,20	-11,34	5,744	2,537	-1000000	-1000000	-1000000
384,80	-11,41	5,787	2,538	-1000000	-1000000	-1000000
387,40	-11,52	5,831	2,538	-1000000	-1000000	-1000000
390,00	-11,61	5,874	2,538	-1000000	-1000000	-1000000
392,60	-11,72	5,918	2,538	-1000000	-1000000	-1000000
395,20	-11,77	5,961	2,538	-1000000	-1000000	-1000000
397,80	-11,88	6,005	2,538	-1000000	-1000000	-1000000
400,40	-11,96	6,047	2,538	-1000000	-1000000	-1000000
403,00	-12,05	6,090	2,538	-1000000	-1000000	-1000000
405,60	-12,15	6,133	2,538	-1000000	-1000000	-1000000
408,20	-12,23	6,176	2,538	-1000000	-1000000	-1000000
410,80	-12,33	6,220	2,538	-1000000	-1000000	-1000000
413,40	-12,41	6,263	2,539	-1000000	-1000000	-1000000
416,00	-12,51	6,306	2,539	-1000000	-1000000	-1000000
418,60	-12,59	6,350	2,539	-1000000	-1000000	-1000000
421,20	-12,70	6,393	2,539	-1000000	-1000000	-1000000
423,80	-12,79	6,436	2,539	-1000000	-1000000	-1000000
426,40	-12,88	6,480	2,539	-1000000	-1000000	-1000000
429,00	-12,92	6,522	2,539	-1000000	-1000000	-1000000
431,60	-13,03	6,566	2,539	-1000000	-1000000	-1000000
434,20	-13,12	6,610	2,539	-1000000	-1000000	-1000000
436,80	-13,22	6,652	2,539	-1000000	-1000000	-1000000
439,40	-13,31	6,696	2,539	-1000000	-1000000	-1000000
442,00	-13,38	6,739	2,540	-1000000	-1000000	-1000000
444,60	-13,48	6,781	2,540	-1000000	-1000000	-1000000
447,20	-13,58	6,826	2,540	-1000000	-1000000	-1000000
449,80	-13,67	6,869	2,540	-1000000	-1000000	-1000000
452,40	0,00206	6,912	2,455	-1000000	-1000000	-1000000
455,00	-0,00363	6,956	2,452	-1000000	-1000000	-1000000
457,60	-0,00527	6,999	2,451	-1000000	-1000000	-1000000
460,20	-0,00719	7,041	2,451	-1000000	-1000000	-1000000
462,80	-0,00861	7,085	2,450	-1000000	-1000000	-1000000
464,70	-0,00961	7,116	2,450	-1000000	-1000000	-1000000