File: notebooks/experimental_tests/results/carbon_tensile_tests/F4.txt
Zeit  1 - Standardmessrate [s]	Kraft [kN]	Weg [mm]	DD1 [Prom]	PMX_1 CH 3-2 [µm/m]	PMX_1 CH 3-3 [mm]	PMX_1 CH 3-4 [mm]
0	-0,04941	0,000	0,000	-1000000	-1000000	-1000000
2,400	-0,04946	-0,00031	0,000	-1000000	-1000000	-1000000
4,800	-0,05988	0,01190	-0,02216	-1000000	-1000000	-1000000
7,200	-0,1147	0,05255	-0,1323	-1000000	-1000000	-1000000
9,600	-0,1489	0,08088	-0,2014	-1000000	-1000000	-1000000
12,00	-0,1478	0,08149	-0,2019	-1000000	-1000000	-1000000
14,40	-0,1473	13,38	-0,2018	-1000000	-1000000	-1000000
16,80	-0,1474	13,38	-0,2015	-1000000	-1000000	-1000000
19,20	-0,1473	13,38	-0,2013	-1000000	-1000000	-1000000
21,60	-0,1906	13,42	-0,2737	-1000000	-1000000	-1000000
24,00	-0,2367	13,46	-0,3460	-1000000	-1000000	-1000000
26,40	-0,2591	13,50	-0,3832	-1000000	-1000000	-1000000
28,80	-0,2679	13,54	-0,3970	-1000000	-1000000	-1000000
31,20	-0,2690	13,58	-0,4019	-1000000	-1000000	-1000000
33,60	-0,2851	13,62	-0,4242	-1000000	-1000000	-1000000
36,00	-0,2977	13,66	-0,4406	-1000000	-1000000	-1000000
38,40	-0,3108	13,70	-0,4606	-1000000	-1000000	-1000000
40,80	-0,3304	13,74	-0,4862	-1000000	-1000000	-1000000
43,20	-0,3377	13,78	-0,4955	-1000000	-1000000	-1000000
45,60	-0,3432	13,82	-0,5050	-1000000	-1000000	-1000000
48,00	-0,3829	13,86	-0,5573	-1000000	-1000000	-1000000
50,40	-0,4256	13,90	-0,6136	-1000000	-1000000	-1000000
52,80	-0,4754	13,94	-0,6782	-1000000	-1000000	-1000000
55,20	-0,5323	13,98	-0,7509	-1000000	-1000000	-1000000
57,60	-0,5239	14,02	-0,7438	-1000000	-1000000	-1000000
60,00	-0,6013	14,06	-0,8415	-1000000	-1000000	-1000000
62,40	-0,6787	14,10	-0,9383	-1000000	-1000000	-1000000
64,80	-0,7568	14,14	-1,037	-1000000	-1000000	-1000000
67,20	-0,8353	14,18	-1,135	-1000000	-1000000	-1000000
69,60	-0,9159	14,22	-1,234	-1000000	-1000000	-1000000
72,00	-0,9957	14,26	-1,333	-1000000	-1000000	-1000000
74,40	-1,076	14,30	-1,432	-1000000	-1000000	-1000000
76,80	-1,159	14,34	-1,534	-1000000	-1000000	-1000000
79,20	-1,243	14,38	-1,638	-1000000	-1000000	-1000000
81,60	-1,328	14,42	-1,742	-1000000	-1000000	-1000000
84,00	-1,415	14,46	-1,847	-1000000	-1000000	-1000000
86,40	-1,502	14,50	-1,953	-1000000	-1000000	-1000000
88,80	-1,590	14,54	-2,059	-1000000	-1000000	-1000000
91,20	-1,678	14,58	-2,166	-1000000	-1000000	-1000000
93,60	-1,767	14,62	-2,273	-1000000	-1000000	-1000000
96,00	-1,857	14,66	-2,381	-1000000	-1000000	-1000000
98,40	-1,946	14,70	-2,489	-1000000	-1000000	-1000000
100,80	-2,035	14,74	-2,597	-1000000	-1000000	-1000000
103,20	-2,125	14,78	-2,704	-1000000	-1000000	-1000000
105,60	-2,216	14,82	-2,811	-1000000	-1000000	-1000000
108,00	-2,306	14,86	-2,920	-1000000	-1000000	-1000000
110,40	-2,397	14,90	-3,027	-1000000	-1000000	-1000000
112,80	-2,488	14,94	-3,135	-1000000	-1000000	-1000000
115,20	-2,580	14,98	-3,242	-1000000	-1000000	-1000000
117,60	-2,671	15,02	-3,350	-1000000	-1000000	-1000000
120,00	-2,762	15,06	-3,457	-1000000	-1000000	-1000000
122,40	-2,851	15,10	-3,562	-1000000	-1000000	-1000000
124,80	-2,941	15,14	-3,667	-1000000	-1000000	-1000000
127,20	-3,031	15,18	-3,772	-1000000	-1000000	-1000000
129,60	-3,116	15,22	-3,874	-1000000	-1000000	-1000000
132,00	-3,204	15,26	-3,975	-1000000	-1000000	-1000000
134,40	-3,289	15,30	-4,074	-1000000	-1000000	-1000000
136,80	-3,377	15,34	-4,175	-1000000	-1000000	-1000000
139,20	-3,463	15,38	-4,275	-1000000	-1000000	-1000000
141,60	-3,550	15,42	-4,375	-1000000	-1000000	-1000000
144,00	-3,637	15,46	-4,476	-1000000	-1000000	-1000000
146,40	-3,723	15,50	-4,576	-1000000	-1000000	-1000000
148,80	-3,811	15,54	-4,676	-1000000	-1000000	-1000000
151,20	-3,896	15,58	-4,775	-1000000	-1000000	-1000000
153,60	-3,971	15,62	-4,862	-1000000	-1000000	-1000000
156,00	-4,058	15,66	-4,961	-1000000	-1000000	-1000000
158,40	-4,143	15,70	-5,059	-1000000	-1000000	-1000000
160,80	-4,229	15,74	-5,158	-1000000	-1000000	-1000000
163,20	-4,315	15,78	-5,256	-1000000	-1000000	-1000000
165,60	-4,400	15,82	-5,354	-1000000	-1000000	-1000000
168,00	-4,487	15,86	-5,452	-1000000	-1000000	-1000000
170,40	-4,578	15,90	-5,550	-1000000	-1000000	-1000000
172,80	-4,665	15,94	-5,650	-1000000	-1000000	-1000000
175,20	-4,752	15,98	-5,747	-1000000	-1000000	-1000000
177,60	-4,834	16,02	-5,840	-1000000	-1000000	-1000000
180,00	-4,919	16,06	-5,935	-1000000	-1000000	-1000000
182,40	-5,004	16,10	-6,032	-1000000	-1000000	-1000000
184,80	-5,091	16,14	-6,129	-1000000	-1000000	-1000000
187,20	-5,177	16,18	-6,225	-1000000	-1000000	-1000000
189,60	-5,264	16,22	-6,323	-1000000	-1000000	-1000000
192,00	-5,352	16,26	-6,421	-1000000	-1000000	-1000000
194,40	-5,439	16,30	-6,519	-1000000	-1000000	-1000000
196,80	-5,267	16,34	-6,259	-1000000	-1000000	-1000000
199,20	-5,368	16,38	-6,373	-1000000	-1000000	-1000000
201,60	-5,462	16,42	-6,477	-1000000	-1000000	-1000000
204,00	-5,554	16,46	-6,578	-1000000	-1000000	-1000000
206,40	-5,642	16,50	-6,676	-1000000	-1000000	-1000000
208,80	-5,732	16,54	-6,775	-1000000	-1000000	-1000000
211,20	-5,819	16,58	-6,872	-1000000	-1000000	-1000000
213,60	-5,908	16,62	-6,969	-1000000	-1000000	-1000000
216,00	-5,996	16,66	-7,067	-1000000	-1000000	-1000000
218,40	-6,084	16,70	-7,164	-1000000	-1000000	-1000000
220,80	-6,171	16,74	-7,261	-1000000	-1000000	-1000000
223,20	-6,259	16,78	-7,357	-1000000	-1000000	-1000000
225,60	-6,344	16,82	-7,451	-1000000	-1000000	-1000000
228,00	-6,434	16,86	-7,550	-1000000	-1000000	-1000000
230,40	-6,524	16,90	-7,649	-1000000	-1000000	-1000000
232,80	-6,617	16,94	-7,750	-1000000	-1000000	-1000000
235,20	-6,709	16,98	-7,851	-1000000	-1000000	-1000000
237,60	-6,801	17,02	-7,953	-1000000	-1000000	-1000000
240,00	-6,894	17,06	-8,055	-1000000	-1000000	-1000000
242,40	-6,986	17,10	-8,156	-1000000	-1000000	-1000000
244,80	-7,081	17,14	-8,259	-1000000	-1000000	-1000000
247,20	-7,173	17,18	-8,361	-1000000	-1000000	-1000000
249,60	-7,267	17,22	-8,463	-1000000	-1000000	-1000000
252,00	-7,362	17,26	-8,566	-1000000	-1000000	-1000000
254,40	-7,454	17,30	-8,667	-1000000	-1000000	-1000000
256,80	-7,548	17,34	-8,770	-1000000	-1000000	-1000000
259,20	-7,642	17,38	-8,873	-1000000	-1000000	-1000000
261,60	-7,735	17,42	-8,977	-1000000	-1000000	-1000000
264,00	-7,772	17,46	-9,167	-1000000	-1000000	-1000000
266,40	-7,870	17,50	-9,274	-1000000	-1000000	-1000000
268,80	-7,965	17,54	-9,379	-1000000	-1000000	-1000000
271,20	-8,059	17,58	-9,483	-1000000	-1000000	-1000000
273,60	-8,154	17,62	-9,587	-1000000	-1000000	-1000000
276,00	-8,247	17,66	-9,693	-1000000	-1000000	-1000000
278,40	-8,338	17,70	-9,797	-1000000	-1000000	-1000000
280,80	-8,430	17,74	-9,905	-1000000	-1000000	-1000000
283,20	-8,523	17,78	-10,01	-1000000	-1000000	-1000000
285,60	-8,602	17,82	-10,12	-1000000	-1000000	-1000000
288,00	-8,698	17,86	-10,23	-1000000	-1000000	-1000000
290,40	-8,791	17,90	-10,33	-1000000	-1000000	-1000000
292,80	-8,887	17,94	-10,44	-1000000	-1000000	-1000000
295,20	-8,982	17,98	-10,55	-1000000	-1000000	-1000000
297,60	-9,080	18,02	-10,66	-1000000	-1000000	-1000000
300,00	-9,175	18,06	-10,77	-1000000	-1000000	-1000000
302,40	-9,269	18,10	-10,89	-1000000	-1000000	-1000000
304,80	-9,363	18,14	-11,02	-1000000	-1000000	-1000000
307,20	-9,456	18,18	-11,14	-1000000	-1000000	-1000000
309,60	-9,549	18,22	-11,26	-1000000	-1000000	-1000000
312,00	-9,638	18,26	-11,37	-1000000	-1000000	-1000000
314,40	-9,733	18,30	-11,49	-1000000	-1000000	-1000000
316,80	-9,827	18,34	-11,61	-1000000	-1000000	-1000000
319,20	-9,921	18,38	-11,73	-1000000	-1000000	-1000000
321,60	-9,996	18,42	-11,81	-1000000	-1000000	-1000000
324,00	-10,03	18,44	-11,86	-1000000	-1000000	-1000000
326,40	-10,00	18,44	-11,85	-1000000	-1000000	-1000000
328,80	-9,984	18,44	-12,93	-1000000	-1000000	-1000000
331,20	-9,964	18,44	2,650	-1000000	-1000000	-1000000
333,60	-9,948	18,44	1,914	-1000000	-1000000	-1000000
336,00	-9,933	18,44	1,916	-1000000	-1000000	-1000000
338,40	-9,918	18,44	1,919	-1000000	-1000000	-1000000
340,80	-10,02	18,47	1,922	-1000000	-1000000	-1000000
343,20	-10,13	18,51	1,923	-1000000	-1000000	-1000000
345,60	-10,24	18,55	1,926	-1000000	-1000000	-1000000
348,00	-10,33	18,59	1,927	-1000000	-1000000	-1000000
350,40	-10,44	18,63	1,928	-1000000	-1000000	-1000000
352,80	-10,53	18,67	1,930	-1000000	-1000000	-1000000
355,20	-10,63	18,71	1,930	-1000000	-1000000	-1000000
357,60	-10,73	18,76	1,930	-1000000	-1000000	-1000000
360,00	-10,83	18,80	1,930	-1000000	-1000000	-1000000
362,40	-10,93	18,84	1,930	-1000000	-1000000	-1000000
364,80	-11,02	18,88	1,930	-1000000	-1000000	-1000000
367,20	-11,12	18,92	1,930	-1000000	-1000000	-1000000
369,60	-11,21	18,96	1,921	-1000000	-1000000	-1000000
372,00	-11,31	19,00	1,923	-1000000	-1000000	-1000000
374,40	-11,41	19,04	1,924	-1000000	-1000000	-1000000
376,80	-11,50	19,08	1,923	-1000000	-1000000	-1000000
379,20	-11,60	19,12	1,924	-1000000	-1000000	-1000000
381,60	-11,69	19,16	1,924	-1000000	-1000000	-1000000
384,00	-11,79	19,20	1,925	-1000000	-1000000	-1000000
386,40	-11,88	19,24	1,925	-1000000	-1000000	-1000000
388,80	-11,98	19,28	1,925	-1000000	-1000000	-1000000
391,20	-12,07	19,32	1,925	-1000000	-1000000	-1000000
393,60	-12,16	19,36	1,926	-1000000	-1000000	-1000000
396,00	-12,26	19,40	1,926	-1000000	-1000000	-1000000
398,40	-12,35	19,44	1,927	-1000000	-1000000	-1000000
400,80	-12,15	19,48	1,918	-1000000	-1000000	-1000000
403,20	-12,26	19,52	1,923	-1000000	-1000000	-1000000
405,60	-12,37	19,56	1,924	-1000000	-1000000	-1000000
408,00	-12,47	19,60	1,924	-1000000	-1000000	-1000000
410,40	-12,56	19,64	1,925	-1000000	-1000000	-1000000
412,80	-12,66	19,68	1,925	-1000000	-1000000	-1000000
415,20	-12,75	19,72	1,925	-1000000	-1000000	-1000000
417,60	-12,85	19,76	1,925	-1000000	-1000000	-1000000
420,00	-12,94	19,80	1,926	-1000000	-1000000	-1000000
422,40	-13,03	19,84	1,926	-1000000	-1000000	-1000000
424,80	-13,13	19,88	1,926	-1000000	-1000000	-1000000
427,20	-0,00012	19,92	1,910	-1000000	-1000000	-1000000
429,60	-0,00518	19,96	1,912	-1000000	-1000000	-1000000
432,00	-0,00651	20,00	1,913	-1000000	-1000000	-1000000
434,40	-0,00976	20,04	1,914	-1000000	-1000000	-1000000
436,80	-0,00969	20,08	1,914	-1000000	-1000000	-1000000
439,20	-0,01078	20,12	1,914	-1000000	-1000000	-1000000
441,60	-0,00992	20,13	1,915	-1000000	-1000000	-1000000
443,00	-0,00951	20,13	1,915	-1000000	-1000000	-1000000