File: notebooks/experimental_tests/results/carbon_tensile_tests/F6.txt
Zeit  1 - Standardmessrate [s]	Kraft [kN]	Weg [mm]	DD1 [Prom]	PMX_1 CH 3-2 [µm/m]	PMX_1 CH 3-3 [mm]	PMX_1 CH 3-4 [mm]
0	-0,2003	0,00040	-0,00280	-1000000	-1000000	-1000000
2,600	-0,2004	0,00026	-0,01990	-1000000	-1000000	-1000000
5,200	-0,2022	0,00691	-0,03733	-1000000	-1000000	-1000000
7,800	-0,2357	0,05058	-0,08631	-1000000	-1000000	-1000000
10,40	-0,2393	0,09354	-0,09472	-1000000	-1000000	-1000000
13,00	-0,2432	0,1375	-0,1073	-1000000	-1000000	-1000000
15,60	-0,2481	0,1810	-0,1250	-1000000	-1000000	-1000000
18,20	-0,2526	0,2241	-0,1460	-1000000	-1000000	-1000000
20,80	-0,2503	0,2672	-0,1588	-1000000	-1000000	-1000000
23,40	-0,2599	0,3112	-0,1825	-1000000	-1000000	-1000000
26,00	-0,2650	0,3540	-0,1974	-1000000	-1000000	-1000000
28,60	-0,2687	0,3970	-0,2066	-1000000	-1000000	-1000000
31,20	-0,2761	0,4406	-0,2213	-1000000	-1000000	-1000000
33,80	-0,2977	0,4836	-0,2518	-1000000	-1000000	-1000000
36,40	-0,3147	0,5273	-0,2739	-1000000	-1000000	-1000000
39,00	-0,3257	0,5713	-0,2851	-1000000	-1000000	-1000000
41,60	-0,3308	0,6141	-0,2887	-1000000	-1000000	-1000000
44,20	-0,3383	0,6573	-0,2961	-1000000	-1000000	-1000000
46,80	-0,3742	0,7007	-0,3387	-1000000	-1000000	-1000000
49,40	-0,4077	0,7435	-0,3758	-1000000	-1000000	-1000000
52,00	-0,4549	0,7877	-0,4254	-1000000	-1000000	-1000000
54,60	-0,4638	0,8300	-0,4285	-1000000	-1000000	-1000000
57,20	-0,5273	0,8737	-0,4989	-1000000	-1000000	-1000000
59,80	-0,5963	0,9170	-0,5642	-1000000	-1000000	-1000000
62,40	-0,6632	0,9601	-0,6222	-1000000	-1000000	-1000000
65,00	-0,7315	1,004	-0,6823	-1000000	-1000000	-1000000
67,60	-0,7907	1,047	-0,7322	-1000000	-1000000	-1000000
70,20	-0,8584	1,090	-0,7931	-1000000	-1000000	-1000000
72,80	-0,9050	1,134	-0,8319	-1000000	-1000000	-1000000
75,40	-0,9590	1,176	-0,8791	-1000000	-1000000	-1000000
78,00	-1,029	1,219	-0,9445	-1000000	-1000000	-1000000
80,60	-1,097	1,263	-1,004	-1000000	-1000000	-1000000
83,20	-1,163	1,306	-1,058	-1000000	-1000000	-1000000
85,80	-1,237	1,349	-1,117	-1000000	-1000000	-1000000
88,40	-1,311	1,393	-1,173	-1000000	-1000000	-1000000
91,00	-1,382	1,437	-1,221	-1000000	-1000000	-1000000
93,60	-1,467	1,480	-1,282	-1000000	-1000000	-1000000
96,20	-1,542	1,523	-1,327	-1000000	-1000000	-1000000
98,80	-1,628	1,566	-1,379	-1000000	-1000000	-1000000
101,40	-1,707	1,609	-1,420	-1000000	-1000000	-1000000
104,00	-1,799	1,654	-1,472	-1000000	-1000000	-1000000
106,60	-1,882	1,696	-1,513	-1000000	-1000000	-1000000
109,20	-1,969	1,740	-1,555	-1000000	-1000000	-1000000
111,80	-2,062	1,783	-1,594	-1000000	-1000000	-1000000
114,40	-2,141	1,826	-1,636	-1000000	-1000000	-1000000
117,00	-2,235	1,870	-1,694	-1000000	-1000000	-1000000
119,60	-2,328	1,912	-1,750	-1000000	-1000000	-1000000
122,20	-2,409	1,955	-1,789	-1000000	-1000000	-1000000
124,80	-2,501	2,000	-1,837	-1000000	-1000000	-1000000
127,40	-2,596	2,043	-1,882	-1000000	-1000000	-1000000
130,00	-2,683	2,086	-1,864	-1000000	-1000000	-1000000
132,60	-2,781	2,129	-1,895	-1000000	-1000000	-1000000
135,20	-2,883	2,172	-1,901	-1000000	-1000000	-1000000
137,80	-2,983	2,216	-1,886	-1000000	-1000000	-1000000
140,40	-3,075	2,259	-1,872	-1000000	-1000000	-1000000
143,00	-3,179	2,302	-1,862	-1000000	-1000000	-1000000
145,60	-3,282	2,346	-1,827	-1000000	-1000000	-1000000
148,20	-3,387	2,389	-1,817	-1000000	-1000000	-1000000
150,80	-3,482	2,433	-1,809	-1000000	-1000000	-1000000
153,40	-3,587	2,476	-1,791	-1000000	-1000000	-1000000
156,00	-3,696	2,519	-1,769	-1000000	-1000000	-1000000
158,60	-3,809	2,562	-1,744	-1000000	-1000000	-1000000
161,20	-3,897	2,606	-1,689	-1000000	-1000000	-1000000
163,80	-4,006	2,650	-1,693	-1000000	-1000000	-1000000
166,40	-4,103	2,692	-1,613	-1000000	-1000000	-1000000
169,00	-4,215	2,737	-1,630	-1000000	-1000000	-1000000
171,60	-4,329	2,779	-1,647	-1000000	-1000000	-1000000
174,20	-4,442	2,822	-1,657	-1000000	-1000000	-1000000
176,80	-4,558	2,866	-1,666	-1000000	-1000000	-1000000
179,40	-4,671	2,909	-1,684	-1000000	-1000000	-1000000
182,00	-4,783	2,952	-1,690	-1000000	-1000000	-1000000
184,60	-4,833	2,995	-1,679	-1000000	-1000000	-1000000
187,20	-4,935	3,038	-1,731	-1000000	-1000000	-1000000
189,80	-5,045	3,082	-1,770	-1000000	-1000000	-1000000
192,40	-5,159	3,125	-1,791	-1000000	-1000000	-1000000
195,00	-5,272	3,168	-1,807	-1000000	-1000000	-1000000
197,60	-5,385	3,211	-1,815	-1000000	-1000000	-1000000
200,20	-5,497	3,255	-1,803	-1000000	-1000000	-1000000
202,80	-5,610	3,298	-1,785	-1000000	-1000000	-1000000
205,40	-5,723	3,342	-1,752	-1000000	-1000000	-1000000
208,00	-5,838	3,385	-1,742	-1000000	-1000000	-1000000
210,60	-5,952	3,428	-1,729	-1000000	-1000000	-1000000
213,20	-6,068	3,472	-1,690	-1000000	-1000000	-1000000
215,80	-6,184	3,516	-1,637	-1000000	-1000000	-1000000
218,40	-6,300	3,559	-1,590	-1000000	-1000000	-1000000
221,00	-6,415	3,602	-1,588	-1000000	-1000000	-1000000
223,60	-6,531	3,645	-1,602	-1000000	-1000000	-1000000
226,20	-6,645	3,688	-1,623	-1000000	-1000000	-1000000
228,80	-6,750	3,733	-1,631	-1000000	-1000000	-1000000
231,40	-6,863	3,775	-1,647	-1000000	-1000000	-1000000
234,00	-6,976	3,819	-1,657	-1000000	-1000000	-1000000
236,60	-7,092	3,862	-1,668	-1000000	-1000000	-1000000
239,20	-7,206	3,905	-1,676	-1000000	-1000000	-1000000
241,80	-7,314	3,949	-1,662	-1000000	-1000000	-1000000
244,40	-7,313	3,991	-1,598	-1000000	-1000000	-1000000
247,00	-7,428	4,035	-1,636	-1000000	-1000000	-1000000
249,60	-7,543	4,078	-1,613	-1000000	-1000000	-1000000
252,20	-7,661	4,121	-1,591	-1000000	-1000000	-1000000
254,80	-7,779	4,165	-1,555	-1000000	-1000000	-1000000
257,40	-7,897	4,209	-1,539	-1000000	-1000000	-1000000
260,00	-8,015	4,251	-1,525	-1000000	-1000000	-1000000
262,60	-8,133	4,295	-1,530	-1000000	-1000000	-1000000
265,20	-8,249	4,338	-1,546	-1000000	-1000000	-1000000
267,80	-8,368	4,382	-1,556	-1000000	-1000000	-1000000
270,40	-8,486	4,425	-1,567	-1000000	-1000000	-1000000
273,00	-8,605	4,469	-1,580	-1000000	-1000000	-1000000
275,60	-8,721	4,512	-1,603	-1000000	-1000000	-1000000
278,20	-8,841	4,555	-1,618	-1000000	-1000000	-1000000
280,80	-8,960	4,599	-1,625	-1000000	-1000000	-1000000
283,40	-9,082	4,641	-1,638	-1000000	-1000000	-1000000
286,00	-9,201	4,685	-1,645	-1000000	-1000000	-1000000
288,60	-9,319	4,729	-1,614	-1000000	-1000000	-1000000
291,20	-9,436	4,771	-1,580	-1000000	-1000000	-1000000
293,80	-9,554	4,815	-1,563	-1000000	-1000000	-1000000
296,40	-9,669	4,859	-1,518	-1000000	-1000000	-1000000
299,00	-9,785	4,901	-1,481	-1000000	-1000000	-1000000
301,60	-9,900	4,945	-1,483	-1000000	-1000000	-1000000
304,20	-10,01	4,988	-1,480	-1000000	-1000000	-1000000
306,80	-10,13	5,031	-1,483	-1000000	-1000000	-1000000
309,40	-10,24	5,075	-1,550	-1000000	-1000000	-1000000
312,00	-10,35	5,118	-0,1418	-1000000	-1000000	-1000000
314,60	-10,46	5,161	-0,8994	-1000000	-1000000	-1000000
317,20	-10,57	5,205	-1,238	-1000000	-1000000	-1000000
319,80	-10,68	5,248	-1,238	-1000000	-1000000	-1000000
322,40	-10,80	5,292	-1,237	-1000000	-1000000	-1000000
325,00	-10,90	5,334	-1,237	-1000000	-1000000	-1000000
327,60	-11,01	5,382	-1,237	-1000000	-1000000	-1000000
330,20	-11,12	5,426	-1,237	-1000000	-1000000	-1000000
332,80	-11,23	5,469	-1,237	-1000000	-1000000	-1000000
335,40	-11,33	5,512	-1,237	-1000000	-1000000	-1000000
338,00	-9,385	5,555	-1,239	-1000000	-1000000	-1000000
340,60	-9,548	5,599	-1,239	-1000000	-1000000	-1000000
343,20	-9,703	5,642	-1,239	-1000000	-1000000	-1000000
345,80	-9,856	5,686	-1,239	-1000000	-1000000	-1000000
348,40	-10,01	5,729	-1,239	-1000000	-1000000	-1000000
351,00	-10,16	5,772	-1,239	-1000000	-1000000	-1000000
353,60	-10,30	5,816	-1,239	-1000000	-1000000	-1000000
356,20	-10,45	5,858	-1,239	-1000000	-1000000	-1000000
358,80	-10,59	5,902	-1,239	-1000000	-1000000	-1000000
361,40	-10,74	5,946	-1,239	-1000000	-1000000	-1000000
364,00	-10,88	5,989	-1,239	-1000000	-1000000	-1000000
366,60	-11,02	6,033	-1,239	-1000000	-1000000	-1000000
369,20	-11,16	6,076	-1,239	-1000000	-1000000	-1000000
371,80	-11,29	6,118	-1,239	-1000000	-1000000	-1000000
374,40	-11,43	6,162	-1,239	-1000000	-1000000	-1000000
377,00	-11,56	6,205	-1,239	-1000000	-1000000	-1000000
379,60	-11,69	6,248	-1,239	-1000000	-1000000	-1000000
382,20	-11,82	6,292	-1,239	-1000000	-1000000	-1000000
384,80	-11,95	6,335	-1,239	-1000000	-1000000	-1000000
387,40	-12,08	6,378	-1,239	-1000000	-1000000	-1000000
390,00	-12,20	6,421	-1,239	-1000000	-1000000	-1000000
392,60	-12,33	6,465	-1,239	-1000000	-1000000	-1000000
395,20	-12,45	6,508	-1,239	-1000000	-1000000	-1000000
397,80	-12,57	6,552	-1,239	-1000000	-1000000	-1000000
400,40	-12,69	6,595	-1,239	-1000000	-1000000	-1000000
403,00	-12,81	6,638	-1,239	-1000000	-1000000	-1000000
405,60	-12,93	6,682	-1,239	-1000000	-1000000	-1000000
408,20	-13,05	6,724	-1,239	-1000000	-1000000	-1000000
410,80	-12,67	6,767	-1,240	-1000000	-1000000	-1000000
413,40	-12,55	6,811	-1,239	-1000000	-1000000	-1000000
416,00	-12,70	6,854	-1,239	-1000000	-1000000	-1000000
418,60	-12,85	6,897	-1,239	-1000000	-1000000	-1000000
421,20	-12,99	6,940	-1,239	-1000000	-1000000	-1000000
423,80	-13,13	6,983	-1,239	-1000000	-1000000	-1000000
426,40	-13,26	7,027	-1,239	-1000000	-1000000	-1000000
429,00	-13,39	7,070	-1,239	-1000000	-1000000	-1000000
431,60	-13,52	7,113	-1,239	-1000000	-1000000	-1000000
434,20	-13,65	7,157	-1,239	-1000000	-1000000	-1000000
436,80	-13,77	7,200	-1,239	-1000000	-1000000	-1000000
439,40	-13,89	7,243	-1,239	-1000000	-1000000	-1000000
442,00	-14,01	7,286	-1,239	-1000000	-1000000	-1000000
444,60	-14,13	7,329	-1,240	-1000000	-1000000	-1000000
447,20	-14,24	7,372	-1,240	-1000000	-1000000	-1000000
449,80	-14,35	7,416	-1,240	-1000000	-1000000	-1000000
452,40	-14,46	7,459	-1,240	-1000000	-1000000	-1000000
455,00	-14,57	7,502	-1,240	-1000000	-1000000	-1000000
457,60	-14,63	7,546	-1,240	-1000000	-1000000	-1000000
460,20	0,00329	7,588	-1,238	-1000000	-1000000	-1000000
462,80	-0,00233	7,632	-1,238	-1000000	-1000000	-1000000
465,40	-0,00461	7,675	-1,238	-1000000	-1000000	-1000000
466,30	-0,00470	7,690	-1,238	-1000000	-1000000	-1000000