File: notebooks/experimental_tests/results/carbon_tensile_tests/F7.txt
Zeit  1 - Standardmessrate [s]	Kraft [kN]	Weg [mm]	DD1 [Prom]	PMX_1 CH 3-2 [µm/m]	PMX_1 CH 3-3 [mm]	PMX_1 CH 3-4 [mm]
0	0,00299	-0,00119	-0,00052	-1000000	-1000000	-1000000
6,600	-0,00129	0,02676	-0,02790	-1000000	-1000000	-1000000
13,20	-0,02379	0,1374	-0,1377	-1000000	-1000000	-1000000
19,80	-0,04213	0,2470	-0,1533	-1000000	-1000000	-1000000
26,40	-0,06249	0,3567	-0,1939	-1000000	-1000000	-1000000
33,00	-0,08288	0,4670	-0,2278	-1000000	-1000000	-1000000
39,60	-0,1073	0,5762	-0,2565	-1000000	-1000000	-1000000
46,20	-0,1274	0,6863	-0,2617	-1000000	-1000000	-1000000
52,80	-0,1478	0,7963	-0,2689	-1000000	-1000000	-1000000
59,40	-0,1760	0,9059	-0,2773	-1000000	-1000000	-1000000
66,00	-0,2213	1,015	-0,2925	-1000000	-1000000	-1000000
72,60	-0,2613	1,126	-0,2968	-1000000	-1000000	-1000000
79,20	-0,2818	1,236	-0,2744	-1000000	-1000000	-1000000
85,80	-0,3002	1,345	-0,2710	-1000000	-1000000	-1000000
92,40	-0,3142	1,456	-0,2587	-1000000	-1000000	-1000000
99,00	-0,3347	1,566	-0,2659	-1000000	-1000000	-1000000
105,60	-0,3498	1,676	-0,2556	-1000000	-1000000	-1000000
112,20	-0,3773	1,786	-0,2589	-1000000	-1000000	-1000000
118,80	-0,3880	1,895	-0,2380	-1000000	-1000000	-1000000
125,40	-0,4486	2,005	-0,2692	-1000000	-1000000	-1000000
132,00	-0,4991	2,115	-0,2670	-1000000	-1000000	-1000000
138,60	-0,5628	2,225	-0,2644	-1000000	-1000000	-1000000
145,20	-0,6265	2,336	-0,2480	-1000000	-1000000	-1000000
151,80	-0,6839	2,446	-0,2091	-1000000	-1000000	-1000000
158,40	-0,7817	2,555	-0,2111	-1000000	-1000000	-1000000
165,00	-0,8676	2,666	-0,1801	-1000000	-1000000	-1000000
171,60	-0,9812	2,776	-0,1780	-1000000	-1000000	-1000000
178,20	-1,100	2,885	-0,1739	-1000000	-1000000	-1000000
184,80	-1,215	2,995	-0,1659	-1000000	-1000000	-1000000
191,40	-1,335	3,105	-0,1469	-1000000	-1000000	-1000000
198,00	-1,479	3,215	-0,1643	-1000000	-1000000	-1000000
204,60	-1,604	3,324	-0,1702	-1000000	-1000000	-1000000
211,20	-1,747	3,435	-0,1794	-1000000	-1000000	-1000000
217,80	-1,899	3,545	-0,1858	-1000000	-1000000	-1000000
224,40	-2,044	3,655	-0,1773	-1000000	-1000000	-1000000
231,00	-2,184	3,764	-0,1599	-1000000	-1000000	-1000000
237,60	-2,333	3,875	-0,1229	-1000000	-1000000	-1000000
244,20	-2,489	3,984	-0,08070	-1000000	-1000000	-1000000
250,80	-2,652	4,094	-0,02623	-1000000	-1000000	-1000000
257,40	-2,805	4,204	-0,00483	-1000000	-1000000	-1000000
264,00	-2,963	4,314	0,00493	-1000000	-1000000	-1000000
270,60	-3,123	4,424	0,00705	-1000000	-1000000	-1000000
277,20	-3,285	4,534	0,00219	-1000000	-1000000	-1000000
283,80	-3,443	4,644	0,00068	-1000000	-1000000	-1000000
290,40	-3,571	4,754	0,00494	-1000000	-1000000	-1000000
297,00	-3,743	4,863	-0,02867	-1000000	-1000000	-1000000
303,60	-3,912	4,974	-0,04676	-1000000	-1000000	-1000000
310,20	-4,076	5,084	-0,06516	-1000000	-1000000	-1000000
316,80	-4,240	5,194	-0,06528	-1000000	-1000000	-1000000
323,40	-4,412	5,304	-0,06253	-1000000	-1000000	-1000000
330,00	-4,583	5,418	-0,05848	-1000000	-1000000	-1000000
336,60	-4,753	5,528	-0,06575	-1000000	-1000000	-1000000
343,20	-4,927	5,638	-0,08310	-1000000	-1000000	-1000000
349,80	-5,096	5,748	-0,09806	-1000000	-1000000	-1000000
356,40	-5,269	5,858	-0,1197	-1000000	-1000000	-1000000
363,00	-5,442	5,967	-0,1363	-1000000	-1000000	-1000000
369,60	-5,613	6,077	-0,1299	-1000000	-1000000	-1000000
376,20	-5,788	6,187	-0,1191	-1000000	-1000000	-1000000
382,80	-5,963	6,297	-0,1042	-1000000	-1000000	-1000000
389,40	-6,137	6,408	-0,1108	-1000000	-1000000	-1000000
396,00	-6,312	6,517	-0,1255	-1000000	-1000000	-1000000
402,60	-6,488	6,627	-0,1412	-1000000	-1000000	-1000000
409,20	-6,664	6,737	-0,1609	-1000000	-1000000	-1000000
415,80	-6,840	6,847	-0,1705	-1000000	-1000000	-1000000
422,40	-7,017	6,956	-0,1779	-1000000	-1000000	-1000000
429,00	-7,193	7,066	-0,1785	-1000000	-1000000	-1000000
435,60	-7,369	7,175	-0,1768	-1000000	-1000000	-1000000
442,20	-7,545	7,285	-0,1686	-1000000	-1000000	-1000000
448,80	-7,724	7,394	-0,1648	-1000000	-1000000	-1000000
455,40	-7,903	7,504	-0,1613	-1000000	-1000000	-1000000
462,00	-8,080	7,615	-0,1648	-1000000	-1000000	-1000000
468,60	-8,257	7,724	-0,1718	-1000000	-1000000	-1000000
475,20	-8,433	7,835	-0,1754	-1000000	-1000000	-1000000
481,80	-8,609	7,945	-0,1778	-1000000	-1000000	-1000000
488,40	-8,784	8,055	1,263	-1000000	-1000000	-1000000
495,00	-8,961	8,164	0,3934	-1000000	-1000000	-1000000
501,60	-9,140	8,274	0,3931	-1000000	-1000000	-1000000
508,20	-9,312	8,384	0,3929	-1000000	-1000000	-1000000
514,80	-9,485	8,494	0,3930	-1000000	-1000000	-1000000
521,40	-9,655	8,604	0,3928	-1000000	-1000000	-1000000
528,00	-9,818	8,714	0,3927	-1000000	-1000000	-1000000
534,60	-9,969	8,824	0,3925	-1000000	-1000000	-1000000
541,20	-10,11	8,934	0,3923	-1000000	-1000000	-1000000
547,80	-10,23	9,043	0,3923	-1000000	-1000000	-1000000
554,40	-10,35	9,153	0,3923	-1000000	-1000000	-1000000
561,00	-10,45	9,263	0,3922	-1000000	-1000000	-1000000
567,60	-10,56	9,372	0,3920	-1000000	-1000000	-1000000
574,20	-10,67	9,482	0,3918	-1000000	-1000000	-1000000
580,80	-10,78	9,592	0,3918	-1000000	-1000000	-1000000
587,40	-10,88	9,703	0,3917	-1000000	-1000000	-1000000
594,00	-10,99	9,813	0,3915	-1000000	-1000000	-1000000
600,60	-11,10	9,923	0,3915	-1000000	-1000000	-1000000
607,20	-11,20	10,03	0,3915	-1000000	-1000000	-1000000
613,80	-11,30	10,14	0,3914	-1000000	-1000000	-1000000
620,40	-11,41	10,25	0,3914	-1000000	-1000000	-1000000
627,00	-11,51	10,36	0,3914	-1000000	-1000000	-1000000
633,60	-11,61	10,47	0,3914	-1000000	-1000000	-1000000
640,20	-11,70	10,58	0,3914	-1000000	-1000000	-1000000
646,80	-11,80	10,70	0,3913	-1000000	-1000000	-1000000
653,40	-11,90	10,81	0,3913	-1000000	-1000000	-1000000
660,00	-11,99	10,92	0,3913	-1000000	-1000000	-1000000
666,60	-12,09	11,03	0,3913	-1000000	-1000000	-1000000
673,20	-12,18	11,14	0,3911	-1000000	-1000000	-1000000
679,80	-12,28	11,25	0,3912	-1000000	-1000000	-1000000
686,40	-12,37	11,36	0,3911	-1000000	-1000000	-1000000
693,00	-12,46	11,46	0,3911	-1000000	-1000000	-1000000
699,60	-12,55	11,57	0,3911	-1000000	-1000000	-1000000
706,20	-12,64	11,68	0,3911	-1000000	-1000000	-1000000
712,80	-12,73	11,79	0,3911	-1000000	-1000000	-1000000
719,40	-12,81	11,90	0,3911	-1000000	-1000000	-1000000
726,00	-12,89	12,01	0,3912	-1000000	-1000000	-1000000
732,60	-12,97	12,12	0,3912	-1000000	-1000000	-1000000
739,20	-13,03	12,23	0,3911	-1000000	-1000000	-1000000
745,80	-13,10	12,34	0,3911	-1000000	-1000000	-1000000
752,40	-13,08	12,45	0,3911	-1000000	-1000000	-1000000
759,00	-12,94	12,56	0,3911	-1000000	-1000000	-1000000
765,60	-12,75	12,67	0,3909	-1000000	-1000000	-1000000
772,20	-12,57	12,78	0,3910	-1000000	-1000000	-1000000
778,80	-12,40	12,89	0,3909	-1000000	-1000000	-1000000
785,40	-12,22	13,00	0,3909	-1000000	-1000000	-1000000
792,00	-12,00	13,11	0,3909	-1000000	-1000000	-1000000
798,60	-11,74	13,22	0,3908	-1000000	-1000000	-1000000
805,20	-11,46	13,33	0,3908	-1000000	-1000000	-1000000
811,80	-11,20	13,44	0,3907	-1000000	-1000000	-1000000
818,40	-10,94	13,55	0,3907	-1000000	-1000000	-1000000
825,00	-10,71	13,66	0,3907	-1000000	-1000000	-1000000
831,60	-10,49	13,77	0,3906	-1000000	-1000000	-1000000
838,20	-10,28	13,88	0,3907	-1000000	-1000000	-1000000
844,80	-10,08	13,99	0,3908	-1000000	-1000000	-1000000
851,40	-9,887	14,10	0,3909	-1000000	-1000000	-1000000
858,00	-9,683	14,21	0,3907	-1000000	-1000000	-1000000
864,60	-9,470	14,32	0,3906	-1000000	-1000000	-1000000
871,20	-9,255	14,43	0,3906	-1000000	-1000000	-1000000
877,80	-9,050	14,54	0,3906	-1000000	-1000000	-1000000
884,40	-8,858	14,65	0,3906	-1000000	-1000000	-1000000
891,00	-8,664	14,76	0,3905	-1000000	-1000000	-1000000
897,60	-8,463	14,87	0,3907	-1000000	-1000000	-1000000
904,20	-8,253	14,98	0,3906	-1000000	-1000000	-1000000
910,80	-8,040	15,09	0,3907	-1000000	-1000000	-1000000
917,40	-7,844	15,20	0,3906	-1000000	-1000000	-1000000
924,00	-7,662	15,31	0,3905	-1000000	-1000000	-1000000
930,60	-7,493	15,42	0,3905	-1000000	-1000000	-1000000
937,20	-7,343	15,53	0,3905	-1000000	-1000000	-1000000
943,80	-7,212	15,64	0,3905	-1000000	-1000000	-1000000
950,40	-7,091	15,75	0,3905	-1000000	-1000000	-1000000
957,00	-6,983	15,86	0,3904	-1000000	-1000000	-1000000
963,60	-6,871	15,97	0,3905	-1000000	-1000000	-1000000
970,20	-6,760	16,08	0,3904	-1000000	-1000000	-1000000
976,80	-6,649	16,19	0,3907	-1000000	-1000000	-1000000
983,40	-6,547	16,30	0,3906	-1000000	-1000000	-1000000
990,00	-6,447	16,41	0,3905	-1000000	-1000000	-1000000
996,60	-6,353	16,52	0,3907	-1000000	-1000000	-1000000
1003,2	-6,263	16,63	0,3910	-1000000	-1000000	-1000000
1009,8	-6,186	16,74	0,3909	-1000000	-1000000	-1000000
1016,4	-6,117	16,85	0,3907	-1000000	-1000000	-1000000
1023,0	-6,043	16,96	0,3905	-1000000	-1000000	-1000000
1029,6	-5,963	17,07	0,3906	-1000000	-1000000	-1000000
1036,2	-5,890	17,18	0,3910	-1000000	-1000000	-1000000
1042,8	-5,825	17,29	0,3913	-1000000	-1000000	-1000000
1049,4	-5,759	17,40	0,3915	-1000000	-1000000	-1000000
1056,0	-5,691	17,51	0,3915	-1000000	-1000000	-1000000
1062,6	-5,625	17,62	0,3915	-1000000	-1000000	-1000000
1069,2	-5,561	17,73	0,3914	-1000000	-1000000	-1000000
1075,8	-5,495	17,84	0,3916	-1000000	-1000000	-1000000
1082,4	-5,439	17,95	0,3916	-1000000	-1000000	-1000000
1089,0	-5,388	18,06	0,3917	-1000000	-1000000	-1000000
1095,6	-5,348	18,17	0,3919	-1000000	-1000000	-1000000
1102,2	-5,314	18,28	0,3918	-1000000	-1000000	-1000000
1108,8	-5,290	18,39	0,3919	-1000000	-1000000	-1000000
1115,4	-5,267	18,50	0,3918	-1000000	-1000000	-1000000
1122,0	-5,244	18,61	0,3919	-1000000	-1000000	-1000000
1128,6	-5,222	18,72	0,3918	-1000000	-1000000	-1000000
1135,2	-5,202	18,83	0,3917	-1000000	-1000000	-1000000
1141,8	-5,179	18,94	0,3917	-1000000	-1000000	-1000000
1148,4	-5,156	19,05	0,3918	-1000000	-1000000	-1000000
1155,0	-5,132	19,16	0,3921	-1000000	-1000000	-1000000
1161,6	-5,110	19,27	0,3921	-1000000	-1000000	-1000000
1168,2	-5,089	19,38	0,3922	-1000000	-1000000	-1000000
1174,8	-5,068	19,49	0,3924	-1000000	-1000000	-1000000
1181,4	-5,048	19,60	0,3923	-1000000	-1000000	-1000000
1188,0	-5,025	19,71	0,3922	-1000000	-1000000	-1000000
1194,6	-5,000	19,82	0,3922	-1000000	-1000000	-1000000
1201,2	-4,979	19,93	0,3920	-1000000	-1000000	-1000000
1202,5	-4,975	19,95	0,3920	-1000000	-1000000	-1000000