File: notebooks/experimental_tests/results/carbon_tensile_tests/F8.txt
Zeit  1 - Standardmessrate [s]	Kraft [kN]	Weg [mm]	DD1 [Prom]	PMX_1 CH 3-2 [µm/m]	PMX_1 CH 3-3 [mm]	PMX_1 CH 3-4 [mm]
0	-0,08270	0,00021	0,000	-1000000	-1000000	-1000000
3,800	-0,08307	24,03	0,000	-1000000	-1000000	-1000000
7,600	-0,08849	24,04	-0,01244	-1000000	-1000000	-1000000
11,40	-0,1392	24,11	-0,09898	-1000000	-1000000	-1000000
15,20	-0,1801	24,17	-0,1539	-1000000	-1000000	-1000000
19,00	-0,2225	24,24	-0,1991	-1000000	-1000000	-1000000
22,80	-0,2512	24,30	-0,2258	-1000000	-1000000	-1000000
26,60	-0,2573	24,36	-0,2777	-1000000	-1000000	-1000000
30,40	-0,2587	24,42	-0,2872	-1000000	-1000000	-1000000
34,20	-0,2737	24,49	-0,3019	-1000000	-1000000	-1000000
38,00	-0,2874	24,55	-0,3191	-1000000	-1000000	-1000000
41,80	-0,3292	24,61	-0,3482	-1000000	-1000000	-1000000
45,60	-0,3468	24,68	-0,3428	-1000000	-1000000	-1000000
49,40	-0,3699	24,74	-0,3562	-1000000	-1000000	-1000000
53,20	-0,4199	24,80	-0,3961	-1000000	-1000000	-1000000
57,00	-0,4639	24,87	-0,4168	-1000000	-1000000	-1000000
60,80	-0,5214	24,93	-0,4510	-1000000	-1000000	-1000000
64,60	-0,5591	24,99	-0,4416	-1000000	-1000000	-1000000
68,40	-0,6086	25,06	-0,4714	-1000000	-1000000	-1000000
72,20	-0,6843	25,12	-0,5030	-1000000	-1000000	-1000000
76,00	-0,7646	25,18	-0,5215	-1000000	-1000000	-1000000
79,80	-0,8452	25,25	-0,5274	-1000000	-1000000	-1000000
83,60	-0,9251	25,31	-0,5305	-1000000	-1000000	-1000000
87,40	-1,006	25,37	-0,5335	-1000000	-1000000	-1000000
91,20	-1,088	25,44	-0,5464	-1000000	-1000000	-1000000
95,00	-1,170	25,50	-0,5565	-1000000	-1000000	-1000000
98,80	-1,256	25,56	-0,5681	-1000000	-1000000	-1000000
102,60	-1,342	25,63	-0,5759	-1000000	-1000000	-1000000
106,40	-1,429	25,69	-0,5802	-1000000	-1000000	-1000000
110,20	-1,515	25,75	-0,5843	-1000000	-1000000	-1000000
114,00	-1,590	25,82	-0,5046	-1000000	-1000000	-1000000
117,80	-1,675	25,88	-0,5260	-1000000	-1000000	-1000000
121,60	-1,761	25,94	-0,5338	-1000000	-1000000	-1000000
125,40	-1,843	26,01	-0,5298	-1000000	-1000000	-1000000
129,20	-1,920	26,07	-0,5085	-1000000	-1000000	-1000000
133,00	-1,996	26,13	-0,4853	-1000000	-1000000	-1000000
136,80	-2,064	26,20	-0,4685	-1000000	-1000000	-1000000
140,60	-2,120	26,26	-0,4616	-1000000	-1000000	-1000000
144,40	-2,149	26,32	-0,4474	-1000000	-1000000	-1000000
148,20	-2,135	26,39	-0,4091	-1000000	-1000000	-1000000
152,00	-2,076	26,45	-0,3352	-1000000	-1000000	-1000000
155,80	-1,996	26,51	-0,2768	-1000000	-1000000	-1000000
159,60	-1,945	26,58	-0,2733	-1000000	-1000000	-1000000
163,40	-1,925	26,64	-0,2854	-1000000	-1000000	-1000000
167,20	-1,922	26,70	-0,3017	-1000000	-1000000	-1000000
171,00	-1,930	26,77	-0,3203	-1000000	-1000000	-1000000
174,80	-1,947	26,83	-0,3425	-1000000	-1000000	-1000000
178,60	-1,967	26,89	-0,3641	-1000000	-1000000	-1000000
182,40	-1,991	26,96	-0,3854	-1000000	-1000000	-1000000
186,20	-2,017	27,02	-0,4031	-1000000	-1000000	-1000000
190,00	-2,041	27,08	-0,4157	-1000000	-1000000	-1000000
193,80	-2,065	27,15	-0,4259	-1000000	-1000000	-1000000
197,60	-2,087	27,21	-0,4334	-1000000	-1000000	-1000000
201,40	-2,111	27,27	-0,4386	-1000000	-1000000	-1000000
205,20	-2,132	27,34	-0,4431	-1000000	-1000000	-1000000
209,00	-2,148	27,40	-0,4427	-1000000	-1000000	-1000000
212,80	-2,156	27,46	-0,4379	-1000000	-1000000	-1000000
216,60	-2,157	27,53	-0,4292	-1000000	-1000000	-1000000
220,40	-2,154	27,59	-0,4186	-1000000	-1000000	-1000000
224,20	-2,149	27,65	-0,4079	-1000000	-1000000	-1000000
228,00	-2,143	27,72	-0,3977	-1000000	-1000000	-1000000
231,80	-2,137	27,78	-0,3892	-1000000	-1000000	-1000000
235,60	-2,133	27,84	-0,3847	-1000000	-1000000	-1000000
239,40	-2,133	27,91	-0,3839	-1000000	-1000000	-1000000
243,20	-2,136	27,97	-0,3846	-1000000	-1000000	-1000000
247,00	-2,135	28,03	-0,3835	-1000000	-1000000	-1000000
250,80	-2,136	28,10	-0,3845	-1000000	-1000000	-1000000
254,60	-2,138	28,16	-0,3862	-1000000	-1000000	-1000000
258,40	-2,140	28,22	-0,3874	-1000000	-1000000	-1000000
262,20	-2,140	28,29	-0,3869	-1000000	-1000000	-1000000
266,00	-2,140	28,35	-0,3849	-1000000	-1000000	-1000000
269,80	-2,140	28,41	-0,3809	-1000000	-1000000	-1000000
273,60	-2,136	28,47	-0,3778	-1000000	-1000000	-1000000
277,40	-2,135	28,54	-0,3744	-1000000	-1000000	-1000000
281,20	-2,128	28,60	-0,3685	-1000000	-1000000	-1000000
285,00	-2,124	28,67	-0,3622	-1000000	-1000000	-1000000
288,80	-2,116	28,73	-0,3544	-1000000	-1000000	-1000000
292,60	-2,108	28,79	-0,3447	-1000000	-1000000	-1000000
296,40	-2,098	28,86	-0,3369	-1000000	-1000000	-1000000
300,20	-2,087	28,92	-0,3291	-1000000	-1000000	-1000000
304,00	-2,075	28,98	-0,3220	-1000000	-1000000	-1000000
307,80	-2,063	29,05	-0,3153	-1000000	-1000000	-1000000
311,60	-2,051	29,11	-0,3096	-1000000	-1000000	-1000000
315,40	-2,041	29,17	-0,3052	-1000000	-1000000	-1000000
319,20	-2,030	29,24	-0,3025	-1000000	-1000000	-1000000
323,00	-2,019	29,30	-0,3006	-1000000	-1000000	-1000000
326,80	-2,011	29,36	-0,2993	-1000000	-1000000	-1000000
330,60	-1,999	29,43	-0,2988	-1000000	-1000000	-1000000
334,40	-1,991	29,49	-0,2969	-1000000	-1000000	-1000000
338,20	-1,979	29,56	-0,2941	-1000000	-1000000	-1000000
342,00	-1,967	29,62	-0,2909	-1000000	-1000000	-1000000
345,80	-1,951	29,68	-0,2879	-1000000	-1000000	-1000000
349,60	-1,938	29,75	-0,2866	-1000000	-1000000	-1000000
353,40	-1,926	29,81	-0,2856	-1000000	-1000000	-1000000
357,20	-1,913	29,87	-0,2846	-1000000	-1000000	-1000000
361,00	-1,902	29,94	-0,2845	-1000000	-1000000	-1000000
364,80	-1,889	30,00	-0,2841	-1000000	-1000000	-1000000
368,60	-1,873	30,06	-0,2820	-1000000	-1000000	-1000000
372,40	-1,860	30,13	-0,2805	-1000000	-1000000	-1000000
376,20	-1,844	30,19	-0,2783	-1000000	-1000000	-1000000
380,00	-1,828	30,25	-0,2765	-1000000	-1000000	-1000000
383,80	-1,812	30,32	-0,2751	-1000000	-1000000	-1000000
387,60	-1,795	30,38	-0,2716	-1000000	-1000000	-1000000
391,40	-1,775	30,44	-0,2693	-1000000	-1000000	-1000000
395,20	-1,755	30,50	-0,2679	-1000000	-1000000	-1000000
399,00	-1,738	30,57	-0,2674	-1000000	-1000000	-1000000
402,80	-1,719	30,63	-0,2674	-1000000	-1000000	-1000000
406,60	-1,702	30,70	-0,2678	-1000000	-1000000	-1000000
410,40	-1,686	30,76	-0,2672	-1000000	-1000000	-1000000
414,20	-1,673	30,82	-0,2676	-1000000	-1000000	-1000000
418,00	-1,660	30,88	-0,2674	-1000000	-1000000	-1000000
421,80	-1,645	30,95	-0,2653	-1000000	-1000000	-1000000
425,60	-1,634	31,01	-0,2650	-1000000	-1000000	-1000000
429,40	-1,621	31,07	-0,2630	-1000000	-1000000	-1000000
433,20	-1,611	31,14	-0,2617	-1000000	-1000000	-1000000
437,00	-1,600	31,20	-0,2592	-1000000	-1000000	-1000000
440,80	-1,586	31,26	-0,2556	-1000000	-1000000	-1000000
444,60	-1,576	31,33	-0,2536	-1000000	-1000000	-1000000
448,40	-1,564	31,39	-0,2533	-1000000	-1000000	-1000000
452,20	-1,556	31,45	-0,2519	-1000000	-1000000	-1000000
456,00	-1,547	31,52	-0,2517	-1000000	-1000000	-1000000
459,80	-1,539	31,58	-0,2513	-1000000	-1000000	-1000000
463,60	-1,532	31,64	-0,2513	-1000000	-1000000	-1000000
467,40	-1,527	31,71	-0,2531	-1000000	-1000000	-1000000
471,20	-1,521	31,77	-0,2524	-1000000	-1000000	-1000000
475,00	-1,517	31,83	-0,2535	-1000000	-1000000	-1000000
478,80	-1,513	31,90	-0,2544	-1000000	-1000000	-1000000
482,60	-1,510	31,96	-0,2559	-1000000	-1000000	-1000000
486,40	-1,506	32,02	-0,2561	-1000000	-1000000	-1000000
490,20	-1,502	32,09	-0,2564	-1000000	-1000000	-1000000
494,00	-1,498	32,15	-0,2567	-1000000	-1000000	-1000000
497,80	-1,496	32,21	-0,2595	-1000000	-1000000	-1000000
501,60	-1,495	32,28	-0,2613	-1000000	-1000000	-1000000
505,40	-1,493	32,34	-0,2624	-1000000	-1000000	-1000000
509,20	-1,491	32,40	-0,2645	-1000000	-1000000	-1000000
513,00	-1,488	32,47	-0,2644	-1000000	-1000000	-1000000
516,80	-1,489	32,53	-0,2670	-1000000	-1000000	-1000000
520,60	-1,488	32,59	-0,2695	-1000000	-1000000	-1000000
524,40	-1,487	32,66	-0,2710	-1000000	-1000000	-1000000
528,20	-1,487	32,72	-0,2734	-1000000	-1000000	-1000000
532,00	-1,486	32,78	-0,2747	-1000000	-1000000	-1000000
535,80	-1,486	32,85	-0,2766	-1000000	-1000000	-1000000
539,60	-1,486	32,91	-0,2787	-1000000	-1000000	-1000000
543,40	-1,486	32,97	-0,2794	-1000000	-1000000	-1000000
547,20	-1,482	33,04	-0,2794	-1000000	-1000000	-1000000
551,00	-1,482	33,10	-0,2803	-1000000	-1000000	-1000000
554,80	-1,481	33,16	-0,2804	-1000000	-1000000	-1000000
558,60	-1,478	33,23	-0,2810	-1000000	-1000000	-1000000
562,40	-1,478	33,29	-0,2810	-1000000	-1000000	-1000000
566,20	-1,474	33,35	-0,2799	-1000000	-1000000	-1000000
570,00	-1,473	33,41	-0,2796	-1000000	-1000000	-1000000
573,80	-1,470	33,48	-0,2791	-1000000	-1000000	-1000000
577,60	-1,470	33,54	-0,2789	-1000000	-1000000	-1000000
581,40	-1,466	33,60	-0,2789	-1000000	-1000000	-1000000
585,20	-1,464	33,67	-0,2784	-1000000	-1000000	-1000000
589,00	-1,462	33,73	-0,2770	-1000000	-1000000	-1000000
592,80	-1,458	33,79	-0,2762	-1000000	-1000000	-1000000
596,60	-1,455	33,86	-0,2747	-1000000	-1000000	-1000000
600,40	-1,454	33,92	-0,2749	-1000000	-1000000	-1000000
604,20	-1,450	33,99	-0,2738	-1000000	-1000000	-1000000
608,00	-1,446	34,05	-0,2723	-1000000	-1000000	-1000000
611,80	-1,442	34,11	-0,2709	-1000000	-1000000	-1000000
615,60	-1,437	34,18	-0,2702	-1000000	-1000000	-1000000
619,40	-1,433	34,24	-0,2674	-1000000	-1000000	-1000000
623,20	-1,429	34,30	-0,2656	-1000000	-1000000	-1000000
627,00	-1,422	34,36	-0,2623	-1000000	-1000000	-1000000
630,80	-1,417	34,43	-0,2605	-1000000	-1000000	-1000000
634,60	-1,411	34,49	-0,2577	-1000000	-1000000	-1000000
638,40	-1,405	34,55	-0,2547	-1000000	-1000000	-1000000
642,20	-1,400	34,62	-0,2529	-1000000	-1000000	-1000000
646,00	-1,393	34,68	-0,2501	-1000000	-1000000	-1000000
649,80	-1,388	34,75	-0,2489	-1000000	-1000000	-1000000
653,60	-1,381	34,81	-0,2474	-1000000	-1000000	-1000000
657,40	-1,376	34,87	-0,2447	-1000000	-1000000	-1000000
661,20	-1,368	34,94	-0,2408	-1000000	-1000000	-1000000
665,00	-1,361	35,00	-0,2387	-1000000	-1000000	-1000000
668,80	-1,356	35,06	-0,2367	-1000000	-1000000	-1000000
672,60	-1,349	35,13	-0,2347	-1000000	-1000000	-1000000
676,40	-1,343	35,19	-0,2320	-1000000	-1000000	-1000000
680,20	-1,336	35,25	-0,2303	-1000000	-1000000	-1000000
684,00	-1,308	35,30	-0,2009	-1000000	-1000000	-1000000
685,50	-1,281	35,30	-0,1730	-1000000	-1000000	-1000000