File: notebooks/experimental_tests/results/carbon_tensile_tests/F9.txt
Zeit  1 - Standardmessrate [s]	Kraft [kN]	Weg [mm]	DD1 [Prom]	PMX_1 CH 3-2 [µm/m]	PMX_1 CH 3-3 [mm]	PMX_1 CH 3-4 [mm]
0	0,02771	-0,00022	0,00010	-1000000	-1000000	-1000000
2,700	0,02802	0,00032	0,00061	-1000000	-1000000	-1000000
5,400	0,02749	-0,00038	0,00094	-1000000	-1000000	-1000000
8,100	0,02775	-0,00016	0,00131	-1000000	-1000000	-1000000
10,80	0,00823	0,03189	-0,03415	-1000000	-1000000	-1000000
13,50	-0,01949	0,07765	-0,06272	-1000000	-1000000	-1000000
16,20	-0,03899	0,1218	-0,08040	-1000000	-1000000	-1000000
18,90	-0,05403	0,1671	-0,08831	-1000000	-1000000	-1000000
21,60	-0,06211	0,2126	-0,08769	-1000000	-1000000	-1000000
24,30	-0,06994	0,2569	-0,08945	-1000000	-1000000	-1000000
27,00	-0,07783	0,3020	-0,08865	-1000000	-1000000	-1000000
29,70	-0,08686	0,3470	-0,08849	-1000000	-1000000	-1000000
32,40	-0,1003	0,3916	-0,09309	-1000000	-1000000	-1000000
35,10	-0,1152	0,4368	-0,09677	-1000000	-1000000	-1000000
37,80	-0,1278	0,4823	-0,09740	-1000000	-1000000	-1000000
40,50	-0,1436	0,5275	-0,09588	-1000000	-1000000	-1000000
43,20	-0,1557	0,5713	-0,09295	-1000000	-1000000	-1000000
45,90	-0,1668	0,6164	-0,09272	-1000000	-1000000	-1000000
48,60	-0,1862	0,6611	-0,1003	-1000000	-1000000	-1000000
51,30	-0,2073	0,7064	-0,1058	-1000000	-1000000	-1000000
54,00	-0,2321	0,7509	-0,1115	-1000000	-1000000	-1000000
56,70	-0,2431	0,7963	-0,1005	-1000000	-1000000	-1000000
59,40	-0,2464	0,8415	-0,09621	-1000000	-1000000	-1000000
62,10	-0,2577	0,8863	-0,1024	-1000000	-1000000	-1000000
64,80	-0,2598	0,9319	-0,09480	-1000000	-1000000	-1000000
67,50	-0,2699	0,9759	-0,09778	-1000000	-1000000	-1000000
70,20	-0,2751	1,021	-0,08956	-1000000	-1000000	-1000000
72,90	-0,2779	1,066	-0,08291	-1000000	-1000000	-1000000
75,60	-0,2942	1,111	-0,09052	-1000000	-1000000	-1000000
78,30	-0,3103	1,156	-0,1006	-1000000	-1000000	-1000000
81,00	-0,3146	1,202	-0,09951	-1000000	-1000000	-1000000
83,70	-0,3218	1,246	-0,1022	-1000000	-1000000	-1000000
86,40	-0,3504	1,291	-0,1336	-1000000	-1000000	-1000000
89,10	-0,3918	1,335	-0,1615	-1000000	-1000000	-1000000
91,80	-0,3736	1,382	-0,1087	-1000000	-1000000	-1000000
94,50	-0,4500	1,425	-0,1881	-1000000	-1000000	-1000000
97,20	-0,5153	1,471	-0,2186	-1000000	-1000000	-1000000
99,90	-0,5865	1,516	-0,2443	-1000000	-1000000	-1000000
102,60	-0,6561	1,561	-0,2612	-1000000	-1000000	-1000000
105,30	-0,7303	1,606	-0,2757	-1000000	-1000000	-1000000
108,00	-0,8047	1,651	-0,2824	-1000000	-1000000	-1000000
110,70	-0,8893	1,696	-0,2997	-1000000	-1000000	-1000000
113,40	-0,9738	1,742	-0,3096	-1000000	-1000000	-1000000
116,10	-1,063	1,786	-0,3110	-1000000	-1000000	-1000000
118,80	-1,149	1,831	-0,3059	-1000000	-1000000	-1000000
121,50	-1,241	1,877	-0,2943	-1000000	-1000000	-1000000
124,20	-1,336	1,920	-0,2751	-1000000	-1000000	-1000000
126,90	-1,426	1,965	-0,2528	-1000000	-1000000	-1000000
129,60	-1,522	2,010	-0,2416	-1000000	-1000000	-1000000
132,30	-1,617	2,055	-0,2314	-1000000	-1000000	-1000000
135,00	-1,709	2,100	-0,2306	-1000000	-1000000	-1000000
137,70	-1,804	2,145	-0,2291	-1000000	-1000000	-1000000
140,40	-1,904	2,190	-0,2273	-1000000	-1000000	-1000000
143,10	-2,002	2,236	-0,2257	-1000000	-1000000	-1000000
145,80	-2,103	2,280	-0,2243	-1000000	-1000000	-1000000
148,50	-2,202	2,326	-0,2246	-1000000	-1000000	-1000000
151,20	-2,304	2,371	-0,2199	-1000000	-1000000	-1000000
153,90	-2,406	2,416	-0,2153	-1000000	-1000000	-1000000
156,60	-2,508	2,461	-0,2115	-1000000	-1000000	-1000000
159,30	-2,607	2,506	-0,2080	-1000000	-1000000	-1000000
162,00	-2,700	2,551	-0,2076	-1000000	-1000000	-1000000
164,70	-2,800	2,596	-0,2033	-1000000	-1000000	-1000000
167,40	-2,895	2,640	-0,1983	-1000000	-1000000	-1000000
170,10	-2,997	2,686	-0,1972	-1000000	-1000000	-1000000
172,80	-3,101	2,730	-0,1944	-1000000	-1000000	-1000000
175,50	-3,202	2,776	-0,1963	-1000000	-1000000	-1000000
178,20	-3,300	2,821	-0,1984	-1000000	-1000000	-1000000
180,90	-3,404	2,865	-0,1980	-1000000	-1000000	-1000000
183,60	-3,510	2,910	-0,1993	-1000000	-1000000	-1000000
186,30	-3,618	2,955	-0,1996	-1000000	-1000000	-1000000
189,00	-3,720	3,000	-0,1972	-1000000	-1000000	-1000000
191,70	-3,829	3,045	-0,1984	-1000000	-1000000	-1000000
194,40	-3,926	3,090	-0,1857	-1000000	-1000000	-1000000
197,10	-4,036	3,135	-0,1903	-1000000	-1000000	-1000000
199,80	-4,145	3,180	-0,1896	-1000000	-1000000	-1000000
202,50	-4,253	3,225	-0,1913	-1000000	-1000000	-1000000
205,20	-4,365	3,270	-0,1897	-1000000	-1000000	-1000000
207,90	-4,481	3,315	-0,1884	-1000000	-1000000	-1000000
210,60	-4,603	3,359	-0,1867	-1000000	-1000000	-1000000
213,30	-4,722	3,405	-0,1841	-1000000	-1000000	-1000000
216,00	-4,843	3,450	-0,1810	-1000000	-1000000	-1000000
218,70	-4,963	3,495	-0,1793	-1000000	-1000000	-1000000
221,40	-5,089	3,540	-0,1784	-1000000	-1000000	-1000000
224,10	-5,211	3,585	-0,1780	-1000000	-1000000	-1000000
226,80	-5,335	3,630	-0,1789	-1000000	-1000000	-1000000
229,50	-5,457	3,675	-0,1778	-1000000	-1000000	-1000000
232,20	-5,541	3,720	-0,1710	-1000000	-1000000	-1000000
234,90	-5,657	3,764	-0,1809	-1000000	-1000000	-1000000
237,60	-5,779	3,809	-0,1840	-1000000	-1000000	-1000000
240,30	-5,898	3,855	-0,1864	-1000000	-1000000	-1000000
243,00	-6,020	3,900	-0,1848	-1000000	-1000000	-1000000
245,70	-6,145	3,944	-0,1798	-1000000	-1000000	-1000000
248,40	-6,262	3,988	-0,1760	-1000000	-1000000	-1000000
251,10	-6,386	4,034	-0,1699	-1000000	-1000000	-1000000
253,80	-6,494	4,079	-0,1646	-1000000	-1000000	-1000000
256,50	-6,611	4,125	-0,1667	-1000000	-1000000	-1000000
259,20	-6,731	4,170	-0,1700	-1000000	-1000000	-1000000
261,90	-6,843	4,215	-0,1707	-1000000	-1000000	-1000000
264,60	-6,959	4,260	-0,1694	-1000000	-1000000	-1000000
267,30	-7,080	4,306	-0,1734	-1000000	-1000000	-1000000
270,00	-7,197	4,351	-0,1706	-1000000	-1000000	-1000000
272,70	-7,317	4,395	-0,1752	-1000000	-1000000	-1000000
275,40	-7,432	4,440	-0,1779	-1000000	-1000000	-1000000
278,10	-7,545	4,485	-0,1807	-1000000	-1000000	-1000000
280,80	-7,666	4,530	-0,2050	-1000000	-1000000	-1000000
283,50	-7,658	4,575	-0,06586	-1000000	-1000000	-1000000
286,20	-7,767	4,620	-0,1828	-1000000	-1000000	-1000000
288,90	-7,876	4,665	-0,2292	-1000000	-1000000	-1000000
291,60	-7,988	4,710	-0,2253	-1000000	-1000000	-1000000
294,30	-7,694	4,755	-0,08285	-1000000	-1000000	-1000000
297,00	-7,847	4,799	-0,1628	-1000000	-1000000	-1000000
299,70	-7,988	4,845	-0,1542	-1000000	-1000000	-1000000
302,40	-8,128	4,891	-0,1465	-1000000	-1000000	-1000000
305,10	-8,259	4,935	-0,1436	-1000000	-1000000	-1000000
307,80	-8,385	4,980	-0,1430	-1000000	-1000000	-1000000
310,50	-8,517	5,025	-0,1472	-1000000	-1000000	-1000000
313,20	-8,637	5,070	-0,1481	-1000000	-1000000	-1000000
315,90	-8,765	5,115	-0,1453	-1000000	-1000000	-1000000
318,60	-8,889	5,161	-0,1447	-1000000	-1000000	-1000000
321,30	-8,998	5,204	-0,1433	-1000000	-1000000	-1000000
324,00	-9,132	5,250	-0,1515	-1000000	-1000000	-1000000
326,70	-9,255	5,295	-0,1496	-1000000	-1000000	-1000000
329,40	-9,371	5,344	-0,1466	-1000000	-1000000	-1000000
332,10	-9,483	5,389	-0,1362	-1000000	-1000000	-1000000
334,80	-9,604	5,434	-0,1387	-1000000	-1000000	-1000000
337,50	-9,719	5,478	-0,1377	-1000000	-1000000	-1000000
340,20	-9,831	5,524	-0,1354	-1000000	-1000000	-1000000
342,90	-9,946	5,568	-0,1327	-1000000	-1000000	-1000000
345,60	-10,06	5,615	-0,1335	-1000000	-1000000	-1000000
348,30	-10,18	5,659	-0,1322	-1000000	-1000000	-1000000
351,00	-10,29	5,704	-0,1361	-1000000	-1000000	-1000000
353,70	-10,40	5,749	-0,1329	-1000000	-1000000	-1000000
356,40	-10,52	5,794	-0,1342	-1000000	-1000000	-1000000
359,10	-10,60	5,828	-0,1097	-1000000	-1000000	-1000000
361,80	-10,58	5,828	-0,03816	-1000000	-1000000	-1000000
364,50	-10,56	5,828	0,3267	-1000000	-1000000	-1000000
367,20	-10,55	5,828	-0,03890	-1000000	-1000000	-1000000
369,90	-10,54	5,828	2,858	-1000000	-1000000	-1000000
372,60	-10,53	5,828	-0,2035	-1000000	-1000000	-1000000
375,30	-10,51	5,828	-0,2035	-1000000	-1000000	-1000000
378,00	-10,51	5,832	-0,2035	-1000000	-1000000	-1000000
380,70	-10,66	5,876	-0,2036	-1000000	-1000000	-1000000
383,40	-10,66	5,921	-0,2037	-1000000	-1000000	-1000000
386,10	-10,81	5,967	-0,2038	-1000000	-1000000	-1000000
388,80	-10,95	6,012	-0,2038	-1000000	-1000000	-1000000
391,50	-11,09	6,056	-0,2038	-1000000	-1000000	-1000000
394,20	-11,22	6,102	-0,2040	-1000000	-1000000	-1000000
396,90	-11,33	6,146	-0,2040	-1000000	-1000000	-1000000
399,60	-11,46	6,192	-0,2039	-1000000	-1000000	-1000000
402,30	-11,58	6,236	-0,2040	-1000000	-1000000	-1000000
405,00	-11,70	6,282	-0,2041	-1000000	-1000000	-1000000
407,70	-11,81	6,327	-0,2042	-1000000	-1000000	-1000000
410,40	-11,93	6,372	-0,2042	-1000000	-1000000	-1000000
413,10	-12,04	6,416	-0,2042	-1000000	-1000000	-1000000
415,80	-12,16	6,462	-0,2042	-1000000	-1000000	-1000000
418,50	-12,27	6,506	-0,2043	-1000000	-1000000	-1000000
421,20	-12,39	6,551	-0,2044	-1000000	-1000000	-1000000
423,90	-12,50	6,597	-0,2044	-1000000	-1000000	-1000000
426,60	-12,62	6,641	-0,2044	-1000000	-1000000	-1000000
429,30	-12,72	6,686	-0,2046	-1000000	-1000000	-1000000
432,00	-12,84	6,731	-0,2046	-1000000	-1000000	-1000000
434,70	-12,95	6,776	-0,2046	-1000000	-1000000	-1000000
437,40	-13,06	6,821	-0,2046	-1000000	-1000000	-1000000
440,10	-13,17	6,866	-0,2047	-1000000	-1000000	-1000000
442,80	-13,28	6,911	-0,2047	-1000000	-1000000	-1000000
445,50	-13,39	6,956	-0,2048	-1000000	-1000000	-1000000
448,20	-13,51	7,001	-0,2047	-1000000	-1000000	-1000000
450,90	-13,63	7,045	-0,2048	-1000000	-1000000	-1000000
453,60	-13,74	7,090	-0,2047	-1000000	-1000000	-1000000
456,30	-13,85	7,136	-0,2049	-1000000	-1000000	-1000000
459,00	-13,96	7,180	-0,2049	-1000000	-1000000	-1000000
461,70	-14,07	7,225	-0,2050	-1000000	-1000000	-1000000
464,40	-14,18	7,269	-0,2050	-1000000	-1000000	-1000000
467,10	-14,29	7,314	-0,2050	-1000000	-1000000	-1000000
469,80	-14,40	7,360	-0,2050	-1000000	-1000000	-1000000
472,50	-14,49	7,404	-0,2050	-1000000	-1000000	-1000000
475,20	-0,00887	7,448	-0,1906	-1000000	-1000000	-1000000
477,90	-0,00151	7,493	-0,1901	-1000000	-1000000	-1000000
480,60	-0,00495	7,538	-0,1899	-1000000	-1000000	-1000000
481,90	-0,00549	7,560	-0,1899	-1000000	-1000000	-1000000