File: notebooks/deflection/deflection_verification/verification_data/Bie20/FT01.csv
Deflection [mm]; Load [kN]
0; 0
0.089414; 5.62642
0.535605; 29.2667
1.0729; 47.2746
2.06085; 64.148
3.0484; 83.2736
3.94747; 93.3918
5.38709; 103.5
7.09597; 119.234
8.89595; 129.335
10.4257; 139.441
12.4062; 147.287
14.205; 164.145
16.1846; 177.622
17.8951; 184.346
19.514; 198.956
21.4944; 207.927
23.2033; 223.661
24.5526; 234.897
25.9017; 247.259
26.9814; 255.122
27.1634; 244.983
27.0757; 231.471
26.8984; 215.709
26.6318; 195.444
25.8234; 181.945
24.7456; 163.947
23.7574; 148.2
22.5895; 130.204
21.6009; 116.709
20.7921; 105.463
19.8032; 94.2204
18.5441; 81.8566
17.3754; 68.365
16.116; 58.2536
15.3072; 47.0075
14.9489; 35.7529
13.9595; 26.7625
12.9695; 21.1504
11.9787; 20.0429
11.3475; 23.4331
11.4353; 35.8189
11.6133; 48.2029
12.0605; 66.2126
13.0484; 83.0859
14.2172; 96.5775
15.2053; 112.325
16.2846; 122.44
17.4529; 138.183
18.4421; 148.3
19.0707; 159.549
19.969; 174.172
20.597; 188.8
21.1359; 197.799
22.5741; 215.79
23.8329; 229.28
26.4419; 249.501
28.4206; 267.482
30.4; 282.085
32.3793; 296.687
34.8085; 314.659
36.8779; 329.26
38.9476; 342.735
41.0168; 358.462
42.9055; 376.444
45.1549; 392.168
47.1359; 397.761
48.9346; 414.62
51.5438; 433.715
53.4335; 446.067
55.2331; 458.42
56.8529; 468.525
58.2024; 478.635
60.2724; 489.857
62.5225; 502.202
64.682; 516.801
66.1214; 528.036
68.2813; 540.383
70.3506; 556.11
71.7003; 565.093
72.8697; 575.206
74.4897; 584.185
76.019; 596.544
77.9991; 606.642
79.2582; 619.005
80.698; 627.987
82.0473; 639.223
83.5776; 645.951
85.1074; 656.058
86.8177; 663.909
88.3474; 674.015
88.4395; 662.752
89.3388; 671.744
90.958; 685.227