File: notebooks/deflection/deflection_verification/verification_data/Bie20/FT02.csv
Deflection [mm]; Load [kN]
0; 0.828962
0.498974; 27.3711
1.32687; 62.0764
2.80863; 102.896
3.63093; 123.304
4.77977; 145.748
6.418; 170.224
7.40158; 186.544
8.71488; 213.069
9.86372; 235.513
10.6852; 253.879
11.6712; 276.326
13.1442; 294.678
14.1294; 315.083
15.7676; 339.559
17.2453; 370.166
19.2117; 400.763
20.5282; 435.459
22.3325; 468.102
23.6482; 500.754
24.4753; 533.417
26.2796; 566.06
27.2631; 582.38
28.5717; 596.651
28.5597; 566.014
28.218; 525.171
27.723; 508.841
26.5694; 474.142
25.4126; 431.274
24.2613; 402.703
22.453; 359.847
21.1365; 325.152
19.658; 292.503
18.1786; 257.811
17.3563; 237.403
16.3703; 214.955
14.7289; 182.309
13.4132; 149.656
11.4421; 106.804
9.96591; 80.2823
8.97834; 53.7502
7.66664; 31.3096
6.35893; 19.0814
6.20484; 41.5519
6.70621; 74.2214
7.69538; 104.838
8.68215; 129.328
9.67052; 157.903
10.6605; 190.562
12.1382; 221.169
13.1258; 247.701
14.115; 278.318
15.5927; 308.926
16.7464; 343.624
18.3902; 382.398
19.8711; 421.175
21.677; 457.903
23.1556; 490.552
25.2952; 547.698
26.7706; 572.178
29.5592; 623.183
31.2007; 655.829
32.8445; 694.603
35.3018; 731.317
37.1061; 763.96
38.9112; 798.645
40.8792; 833.327
42.3569; 863.934
43.6686; 886.375
45.144; 910.855
46.783; 937.373
48.751; 972.055
50.5545; 1002.66
52.8481; 1037.33
54.6532; 1072.02
56.7856; 1110.78
58.7528; 1143.42
61.0497; 1186.27
63.507; 1222.98
65.1477; 1253.58
66.6198; 1269.89
68.587; 1302.53
70.8807; 1337.21
73.0099; 1367.8
74.6473; 1390.24
76.1227; 1414.72
77.7585; 1433.06
79.0662; 1445.29
80.8657; 1465.68
81.8477; 1477.92