File: notebooks/deflection/deflection_verification/verification_data/Bie20/FT03.csv
Deflection [mm]; Load [kN]
0; 0
0.179707; 4.4986
0.533576; 40.528
0.710307; 59.6688
0.978347; 72.0512
1.60695; 83.3006
2.50583; 94.545
4.3959; 104.645
5.65696; 105.747
7.0073; 111.352
8.26694; 120.338
9.07593; 130.458
10.0657; 137.196
11.6855; 147.301
13.4855; 157.402
15.1954; 167.505
16.2746; 177.62
17.7143; 187.728
18.8842; 194.463
20.1441; 202.322
21.3138; 210.183
22.9332; 222.54
24.0129; 230.403
24.8227; 236.018
25.5424; 241.635
26.2621; 247.252
27.1618; 253.992
27.2557; 232.594
27.1687; 215.704
26.6314; 197.696
25.9131; 184.196
24.9249; 168.449
24.0267; 153.826
23.128; 141.455
22.4099; 126.829
21.6009; 116.709
20.4324; 102.091
19.0839; 86.351
17.5552; 70.6139
16.2061; 58.2519
15.0371; 45.8864
14.0484; 33.5176
13.0592; 23.401
12.2494; 17.7856
11.7095; 14.4173
10.8088; 13.3081
10.9853; 33.5751
11.9716; 59.4575
13.1395; 77.4536
14.0382; 89.8241
15.2063; 106.694
15.9252; 116.816
17.0039; 130.309
17.9929; 141.552
18.5316; 151.677
19.4308; 160.669
20.2402; 168.537
21.4991; 182.026
22.3977; 194.397
23.2069; 203.391
24.0163; 211.258
24.4652; 220.259
25.2739; 231.505
25.9922; 245.005
28.0621; 257.354
29.9517; 269.706
31.4808; 283.19
33.3705; 295.542
34.8097; 307.903
36.5192; 320.258
37.958; 334.871
39.9374; 349.473
42.0072; 361.822
42.6378; 361.81